time,intensity,distance
0.001,974,2.09
0.002,974,2.57
0.007,976,2.55
0.023,974,2.50
0.039,976,2.65
0.056,974,2.70
0.073,972,2.30
0.090,972,2.24
0.106,974,2.35
0.122,969,2.40
0.140,966,2.55
0.156,965,2.60
0.173,960,2.86
0.189,957,3.52
0.206,957,3.28
0.223,960,3.26
0.239,958,3.98
0.256,957,3.72
0.273,955,3.93
0.289,952,3.62
0.306,950,4.49
0.322,946,4.85
0.339,942,5.10
0.356,939,4.79
0.372,936,5.46
0.389,936,5.61
0.406,933,5.61
0.422,932,5.30
0.439,930,5.97
0.455,927,6.12
0.473,928,6.68
0.489,924,6.58
0.505,923,6.99
0.522,919,7.65
0.539,917,7.28
0.556,915,7.34
0.572,912,7.50
0.588,910,8.01
0.606,910,7.60
0.622,910,7.70
0.638,910,7.43
0.655,908,7.50
0.672,909,7.85
0.689,908,7.89
0.705,909,8.06
0.721,906,8.11
0.739,906,8.06
0.755,905,8.09
0.772,907,8.21
0.788,905,8.21
0.805,903,8.11
0.822,898,7.75
0.838,899,8.31
0.855,896,8.36
0.872,894,8.31
0.888,893,8.74
0.905,890,8.53
0.921,889,8.59
0.939,885,8.59
0.955,879,8.64
0.971,881,9.20
0.988,876,9.25
1.005,874,8.84
1.021,872,8.89
1.038,874,9.04
1.054,876,9.15
1.072,882,9.13
1.088,883,9.25
1.104,884,9.45
1.121,883,9.55
1.138,883,9.95
1.155,880,9.66
1.171,884,9.86
1.187,884,10.32
1.206,885,10.06
1.223,882,10.17
1.241,884,10.32
1.258,883,10.25
1.276,882,10.71
1.294,880,10.83
1.311,879,10.88
1.330,880,10.78
1.347,881,10.76
1.364,881,10.83
1.382,882,10.37
1.400,882,10.20
1.418,883,10.63
1.435,884,10.71
1.453,883,10.63
1.471,883,10.22
1.488,883,10.22
1.506,882,10.32
1.523,884,10.22
1.542,883,10.63
1.559,882,10.32
1.576,881,10.32
1.595,882,10.66
1.612,881,10.73
1.630,881,10.88
1.647,877,10.88
1.666,879,10.42
1.683,879,10.47
1.700,876,10.63
1.718,875,10.57
1.736,877,10.63
1.754,875,10.68
1.771,876,11.29
1.788,874,10.88
1.807,875,10.98
1.824,873,11.12
1.842,870,11.75
1.860,868,11.34
1.878,867,11.37
1.895,866,11.58
1.912,864,12.05
1.931,861,11.80
1.948,859,12.36
1.966,857,12.26
1.983,853,12.31
2.001,852,12.90
2.019,845,13.11
2.036,850,13.38
2.054,848,13.31
2.072,847,12.97
2.089,845,13.06
2.107,844,13.12
2.124,845,13.21
2.143,842,13.72
2.160,841,13.89
2.178,842,13.43
2.196,841,13.48
2.213,841,13.52
2.231,839,13.67
2.248,838,13.63
2.267,836,14.14
2.284,837,13.84
2.301,837,14.03
2.319,836,13.99
2.337,831,14.48
2.355,830,14.55
2.372,830,14.20
2.390,831,14.30
2.408,830,14.35
2.425,828,14.89
2.443,828,14.86
2.461,828,14.86
2.479,826,14.86
2.496,826,14.96
2.513,827,14.84
2.532,826,14.84
2.549,828,14.84
2.567,827,14.86
2.584,828,14.86
2.603,826,14.84
2.620,827,14.84
2.637,825,15.32
2.655,827,15.32
2.673,827,14.89
2.691,827,15.05
2.708,825,14.96
2.726,824,14.99
2.744,823,15.05
2.761,825,15.15
2.779,820,15.11
2.797,820,15.15
2.814,818,15.16
2.832,821,15.30
2.849,819,15.45
2.868,816,15.22
2.885,819,15.83
2.903,815,15.61
2.920,814,16.17
2.938,811,16.27
2.956,812,15.98
2.973,812,16.06
2.992,811,16.63
3.009,807,16.39
3.026,805,16.52
3.044,804,17.09
3.062,804,16.80
3.080,804,16.88
3.097,803,17.34
3.115,801,17.44
3.133,801,17.49
3.150,799,17.12
3.168,799,17.19
3.185,799,17.19
3.204,797,17.70
3.221,794,17.63
3.238,793,17.43
3.256,790,17.65
3.274,754,18.24
3.292,765,18.00
3.309,772,18.11
3.328,780,18.19
3.345,785,18.72
3.362,787,18.39
3.380,789,18.46
3.398,787,18.56
3.416,786,18.67
3.433,784,18.77
3.450,777,18.92
3.469,771,19.07
3.486,769,19.18
3.504,773,19.89
3.521,770,20.21
3.539,767,20.09
3.557,761,20.79
3.574,759,20.69
3.593,755,21.37
3.610,752,21.42
3.628,751,21.30
3.645,748,21.42
3.663,746,21.57
3.681,747,21.62
3.698,742,21.88
3.716,739,22.49
3.734,737,22.24
3.751,737,22.27
3.769,735,22.47
3.786,733,22.59
3.805,733,22.58
3.822,731,22.80
3.840,731,22.88
3.858,731,22.95
3.875,728,22.88
3.893,730,22.98
3.910,730,23.05
3.929,729,23.09
3.946,728,23.04
3.963,728,23.15
3.981,724,23.19
3.999,720,23.14
4.017,717,23.17
4.034,717,23.29
4.051,718,23.34
4.070,717,23.29
4.087,717,23.29
4.105,717,23.39
4.123,717,23.41
4.141,719,23.32
4.158,716,23.46
4.175,717,23.44
4.194,718,23.49
4.211,715,23.39
4.229,717,23.56
4.246,714,23.58
4.264,716,23.60
4.282,713,23.65
4.299,713,23.82
4.317,711,23.90
4.335,710,23.80
4.353,709,23.85
4.370,708,24.07
4.387,708,24.21
4.406,706,24.26
4.423,703,24.48
4.441,700,24.56
4.459,700,24.62
4.476,701,24.56
4.494,701,24.72
4.511,699,24.79
4.530,697,24.79
4.547,697,24.87
4.564,692,25.13
4.582,686,25.74
4.600,690,25.48
4.618,689,25.69
4.635,685,25.64
4.653,683,26.06
4.671,680,26.18
4.688,679,26.44
4.706,678,26.95
4.724,676,26.59
4.742,668,27.08
4.759,665,27.35
4.776,664,27.15
4.795,663,27.20
4.812,662,27.34
4.830,662,27.51
4.847,660,27.44
4.866,660,27.46
4.883,650,27.49
4.900,638,27.61
4.918,636,27.97
4.936,654,27.56
4.954,649,27.71
4.971,650,28.15
4.989,647,28.10
5.007,650,28.17
5.024,653,27.91
5.042,652,27.97
5.060,652,27.95
5.078,651,28.07
5.095,648,28.66
5.112,648,28.66
5.131,654,28.68
5.148,658,28.66
5.166,656,28.37
5.183,658,28.73
5.201,659,28.32
5.219,651,28.36
5.236,649,28.53
5.255,650,28.56
5.272,649,28.66
5.289,647,29.27
5.307,647,29.22
5.325,648,29.38
5.343,647,29.48
5.360,645,29.22
5.378,645,29.65
5.396,643,29.36
5.413,642,29.53
5.431,638,29.75
5.448,638,29.73
5.467,638,29.84
5.484,636,29.95
5.501,634,30.14
5.519,629,30.50
5.537,622,30.57
5.555,619,30.70
5.572,614,30.65
5.591,614,30.65
5.608,615,30.70
5.625,614,30.80
5.643,614,30.72
5.661,616,30.72
5.679,616,30.75
5.696,615,30.82
5.713,617,30.72
5.732,617,30.72
5.749,620,30.72
5.767,619,30.72
5.784,620,30.28
5.803,620,30.28
5.820,622,30.77
5.837,622,30.29
5.856,621,30.29
5.873,620,30.75
5.891,621,30.45
5.908,621,30.38
5.926,623,30.45
5.944,623,30.57
5.961,622,30.75
5.979,621,30.80
5.997,620,30.96
6.014,618,31.11
6.032,617,31.72
6.049,614,31.94
6.068,610,32.08
6.085,608,32.39
6.103,607,32.06
6.121,606,32.64
6.138,602,32.78
6.156,593,32.62
6.173,594,33.08
6.192,591,32.88
6.209,596,33.05
6.226,595,33.18
6.244,555,33.34
6.262,564,33.92
6.280,573,34.05
6.297,573,34.20
6.315,573,34.37
6.333,574,34.10
6.350,579,34.66
6.368,581,34.90
6.386,579,34.68
6.404,580,34.82
6.421,580,34.94
6.438,585,35.14
6.457,583,35.33
6.474,582,35.90
6.492,580,36.06
6.509,578,36.67
6.528,577,36.45
6.545,576,36.96
6.562,575,36.81
6.580,573,37.38
6.598,571,37.06
6.616,568,37.47
6.633,569,38.08
6.650,566,37.74
6.669,566,37.77
6.686,566,38.25
6.704,563,37.93
6.722,563,37.60
6.739,562,37.96
6.757,562,37.83
6.774,561,37.91
6.793,561,37.91
6.810,560,37.86
6.828,560,37.98
6.845,560,37.98
6.863,561,38.39
6.881,561,37.91
6.898,561,37.98
6.916,559,38.44
6.934,559,38.03
6.951,560,38.42
6.969,562,38.01
6.987,561,38.01
7.005,560,38.32
7.022,560,38.01
7.040,562,37.98
7.058,560,38.01
7.075,559,38.37
7.093,559,38.52
7.110,559,38.10
7.129,559,38.17
7.146,559,38.52
7.163,559,38.68
7.181,558,38.32
7.199,545,38.37
7.217,532,38.47
7.234,531,38.59
7.252,537,38.71
7.270,536,39.13
7.287,536,38.96
7.305,532,38.78
7.323,531,39.29
7.341,531,39.64
7.358,532,39.41
7.375,529,39.44
7.394,536,39.95
7.411,534,39.51
7.429,537,39.76
7.446,535,39.98
7.464,533,39.64
7.482,531,39.87
7.499,531,40.15
7.518,529,40.31
7.535,527,40.41
7.553,524,40.72
7.570,523,40.92
7.588,520,41.12
7.606,511,41.28
7.623,505,41.58
7.641,486,41.79
7.659,461,41.55
7.676,480,42.11
7.694,469,42.35
7.711,471,42.48
7.730,472,42.93
7.747,471,42.65
7.764,470,43.27
7.782,470,42.82
7.800,466,42.89
7.818,463,43.37
7.835,467,43.04
7.854,469,42.98
7.871,470,43.01
7.888,471,43.15
7.906,473,43.18
7.924,476,43.15
7.942,479,43.23
7.959,480,43.38
7.976,488,43.78
7.995,488,43.78
8.012,488,43.47
8.030,486,43.71
8.047,485,43.74
8.066,483,43.91
8.083,481,44.68
8.100,478,44.51
8.119,479,44.64
8.136,479,44.90
8.154,475,45.63
8.171,473,45.75
8.189,470,46.38
8.207,467,46.21
8.224,466,46.53
8.242,465,46.70
8.260,462,47.01
8.278,459,46.85
8.295,457,47.57
8.312,457,47.62
8.331,455,48.21
8.348,454,48.08
8.366,454,47.72
8.384,452,48.18
8.401,452,48.23
8.419,453,48.38
8.436,451,48.28
8.455,451,47.89
8.472,450,48.30
8.489,450,48.42
8.507,449,48.74
8.525,451,48.33
8.543,452,48.33
8.560,452,48.31
8.578,451,48.38
8.596,452,48.37
8.613,453,49.25
8.631,453,48.84
8.649,451,48.91
8.667,451,48.60
8.684,450,48.76
8.701,451,49.16
8.720,448,48.86
8.737,448,48.62
8.755,448,49.56
8.772,445,50.07
8.791,443,49.76
8.808,443,49.93
8.825,440,49.69
8.843,439,49.83
8.861,437,49.98
8.879,436,50.13
8.896,436,50.68
8.913,434,50.41
8.932,432,50.68
8.949,430,51.34
8.967,430,51.15
8.985,427,51.32
9.003,427,51.83
9.020,425,51.63
9.037,422,52.68
9.056,421,52.36
9.073,420,52.14
9.091,420,52.70
9.108,420,53.16
9.126,419,52.39
9.144,420,52.33
9.161,420,52.45
9.179,418,52.50
9.197,419,52.96
9.214,419,52.51
9.232,421,52.50
9.250,422,52.92
9.268,423,52.90
9.285,422,52.46
9.303,424,52.48
9.321,423,52.53
9.338,422,52.96
9.356,421,53.01
9.373,420,53.06
9.392,422,53.98
9.409,420,53.52
9.426,420,54.06
9.444,419,54.13
9.462,420,53.79
9.480,420,55.05
9.497,419,54.66
9.516,419,54.23
9.533,420,54.67
9.550,418,53.86
9.568,419,53.86
9.586,419,55.11
9.604,419,53.82
9.621,419,53.84
9.638,419,53.82
9.657,419,54.66
9.674,419,53.72
9.692,419,53.82
9.709,419,53.82
9.728,419,53.81
9.745,419,53.72
9.762,419,53.79
9.781,419,54.21
9.798,417,54.23
9.816,419,54.66
9.833,420,53.84
9.851,417,54.26
9.869,417,53.45
9.886,418,53.48
9.904,418,53.53
9.922,418,54.40
9.939,417,53.53
9.957,417,53.67
9.974,416,53.74
9.993,415,54.20
10.010,416,54.15
10.029,414,54.30
10.048,415,55.61
10.066,416,55.98
10.085,415,54.89
10.103,414,56.61
10.123,413,55.44
10.141,413,56.20
10.160,412,55.56
10.178,412,55.27
10.198,410,54.25
10.216,409,54.45
10.234,409,54.60
10.254,407,55.15
10.272,406,56.41
10.291,395,56.20
10.309,385,57.21
10.329,382,56.10
10.347,368,56.13
10.365,376,55.91
10.385,375,57.34
10.403,376,56.58
10.422,373,57.65
10.440,370,57.46
10.460,369,56.76
10.478,369,57.48
10.497,368,57.68
10.516,367,58.26
10.534,366,57.97
10.553,366,58.26
10.571,365,58.09
10.591,364,58.21
10.609,363,58.06
10.628,360,58.43
10.647,358,58.67
10.665,358,58.82
10.684,358,60.01
10.702,360,59.74
10.722,362,59.74
10.740,361,59.86
10.759,363,60.04
10.777,362,60.10
10.797,361,60.23
10.815,359,60.11
10.833,358,60.23
10.853,358,60.23
10.871,358,60.30
10.890,358,60.81
10.908,358,60.69
10.928,357,60.49
10.946,356,60.67
10.964,361,61.00
10.984,361,60.95
11.002,360,60.98
11.021,362,61.52
11.039,362,61.08
11.059,361,61.15
11.077,360,62.17
11.096,340,62.27
11.115,341,61.42
11.133,340,61.49
11.152,338,61.69
11.170,337,61.47
11.190,344,62.02
11.208,344,61.81
11.227,344,62.10
11.246,341,62.61
11.265,333,62.46
11.283,307,62.88
11.301,314,63.07
11.321,315,63.39
11.339,312,64.12
11.358,314,64.14
11.376,316,65.11
11.396,315,64.91
11.414,313,64.91
11.432,313,65.04
11.452,312,65.35
11.470,312,65.96
11.489,312,65.70
11.507,312,66.66
11.527,312,66.28
11.545,317,66.84
11.564,317,66.33
11.583,317,66.33
11.601,317,66.37
11.620,316,67.64
11.638,317,67.68
11.658,316,66.86
11.676,316,67.01
11.695,316,67.35
11.714,316,67.44
11.732,316,67.93
11.751,315,66.73
11.769,313,66.79
11.789,314,66.88
11.807,313,66.98
11.826,313,66.69
11.845,311,67.63
11.864,312,67.29
11.882,311,67.80
11.900,313,67.49
11.920,315,67.18
11.938,315,68.10
11.957,316,67.73
11.975,316,67.41
11.995,314,67.86
12.013,316,67.95
12.032,315,68.85
12.051,315,68.05
12.069,314,68.09
12.088,314,68.94
12.106,315,68.12
12.126,315,68.51
12.144,314,68.15
12.163,314,68.56
12.182,313,69.43
12.200,313,69.87
12.219,313,68.66
12.237,313,68.73
12.257,314,70.06
12.275,312,69.75
12.294,311,68.65
12.313,310,68.87
12.332,309,69.11
12.350,311,69.27
12.368,309,70.69
12.388,310,71.23
12.406,308,70.82
12.425,308,75.96
12.444,308,77.13
12.463,307,77.15
12.481,306,75.17
12.499,307,74.77
12.519,306,75.51
12.537,305,72.64
12.556,305,73.17
12.574,306,74.46
12.594,306,176.38
12.613,306,71.83
12.632,305,71.93
12.651,303,72.03
12.669,304,134.22
12.689,306,176.07
12.709,304,77.54
12.728,303,76.41
12.746,302,72.11
12.765,302,72.27
12.784,301,72.39
12.803,301,71.96
12.821,302,74.22
12.839,301,74.34
12.859,299,74.39
12.877,300,72.64
12.896,300,72.81
12.915,298,73.78
12.934,298,72.96
12.952,297,73.22
12.971,297,72.95
12.990,296,73.10
13.008,294,74.04
13.027,293,73.36
13.046,292,73.47
13.065,292,74.36
13.083,290,74.58
13.102,289,73.49
13.121,290,74.77
13.139,289,74.92
13.158,288,74.27
13.177,287,75.21
13.196,288,75.19
13.214,288,74.55
13.233,288,75.43
13.252,288,75.80
13.271,286,75.00
13.289,287,76.01
13.308,287,75.63
13.327,287,74.78
13.345,287,74.97
13.364,286,75.92
13.383,284,74.78
13.402,284,75.28
13.420,284,76.79
13.438,284,75.68
13.458,282,76.99
13.476,283,76.36
13.495,283,76.45
13.514,281,76.84
13.533,280,76.48
13.551,279,76.26
13.570,279,77.16
13.589,280,77.13
13.607,279,78.13
13.626,280,78.18
13.645,280,77.27
13.664,280,78.12
13.682,279,78.23
13.701,278,78.45
13.720,279,77.33
13.739,278,78.45
13.757,278,77.45
13.776,278,77.37
13.795,278,78.51
13.813,278,77.52
13.832,278,77.98
13.851,278,77.11
13.870,277,77.18
13.888,278,78.17
13.907,278,78.81
13.926,277,77.37
13.944,278,78.69
13.963,277,77.66
13.982,275,77.66
14.001,276,78.90
14.019,274,77.59
14.038,275,78.37
14.057,273,77.42
14.075,273,77.64
14.094,273,77.77
14.113,272,79.25
14.132,273,78.20
14.150,272,78.25
14.169,272,78.18
14.188,273,78.25
14.206,270,78.15
14.225,270,78.49
14.244,269,78.18
14.263,271,79.39
14.281,269,79.12
14.300,270,78.37
14.319,268,79.58
14.338,268,78.39
14.356,267,78.61
14.375,267,79.41
14.394,267,79.93
14.412,267,78.86
14.431,267,79.20
14.450,268,79.68
14.469,266,78.85
14.487,267,80.19
14.507,268,80.10
14.525,268,80.10
14.543,267,78.97
14.562,267,78.93
14.581,266,78.81
14.600,267,79.24
14.618,266,79.78
14.637,267,80.12
14.656,265,80.14
14.674,266,79.41
14.693,265,80.16
14.712,264,81.02
14.731,263,81.06
14.749,264,84.90
14.768,265,84.52
14.787,263,80.75
14.806,265,80.07
14.824,263,80.55
14.843,264,80.89
14.862,265,80.92
14.880,263,80.60
14.899,264,80.94
14.918,264,80.92
14.937,263,79.66
14.955,264,81.01
14.974,264,80.50
14.993,263,85.19
15.011,263,86.90
15.030,262,88.23
15.049,263,83.79
15.068,263,83.45
15.086,262,82.26
15.106,264,88.03
15.124,263,85.54
15.142,264,82.31
15.161,263,80.95
15.180,262,81.40
15.199,263,81.84
15.217,262,81.57
15.236,261,81.52
15.255,261,80.75
15.273,262,81.79
15.292,260,81.80
15.311,259,80.34
15.330,258,81.40
15.348,258,81.70
15.367,258,81.36
15.386,258,81.16
15.405,258,81.84
15.423,255,82.81
15.442,253,81.46
15.461,252,82.18
15.479,253,83.33
15.498,252,83.20
15.517,252,83.06
15.536,251,84.61
15.554,250,83.59
15.574,249,83.45
15.592,247,84.51
15.610,245,84.35
15.629,245,84.68
15.648,245,86.16
15.667,244,84.80
15.685,243,85.46
15.705,243,85.63
15.723,241,85.82
15.741,240,86.05
15.760,241,86.22
15.779,242,87.62
15.798,240,86.50
15.816,239,87.06
15.835,240,86.72
15.854,239,88.06
15.873,240,86.90
15.891,240,88.23
15.910,240,87.07
15.929,240,87.14
15.947,238,87.21
15.966,240,87.28
15.985,239,88.16
16.004,238,87.38
16.022,238,88.69
16.041,237,87.89
16.060,238,89.08
16.078,239,89.22
16.097,238,89.23
16.116,237,88.40
16.135,237,88.31
16.153,236,89.25
16.173,238,89.69
16.191,238,88.43
16.209,237,88.45
16.228,238,89.76
16.247,238,88.57
16.266,236,88.52
16.284,236,89.95
16.304,237,88.74
16.322,237,89.61
16.340,235,89.84
16.359,234,89.96
16.378,235,88.43
16.397,233,89.76
16.415,231,89.17
16.434,230,90.19
16.453,230,89.47
16.472,230,90.44
16.490,231,89.28
16.509,230,90.12
16.528,230,89.68
16.546,230,90.22
16.565,230,91.05
16.584,230,90.19
16.603,230,90.20
16.621,229,91.43
16.641,228,91.00
16.659,229,89.64
16.677,228,91.39
16.696,228,90.15
16.715,228,90.61
16.734,228,90.95
16.752,228,89.44
16.772,228,89.84
16.790,227,89.37
16.808,227,89.49
16.827,227,91.19
16.846,227,91.26
16.865,227,89.59
16.883,225,91.46
16.903,225,89.90
16.921,224,90.30
16.940,223,91.38
16.958,224,91.88
16.977,223,90.68
16.996,224,91.88
17.014,223,92.02
17.033,223,92.04
17.052,223,92.38
17.071,222,92.09
17.089,223,97.36
17.108,222,97.41
17.127,223,96.61
17.145,224,95.91
17.164,223,92.74
17.183,222,92.24
17.202,222,91.56
17.220,223,91.60
17.240,222,91.20
17.258,222,91.10
17.276,221,91.65
17.295,221,91.27
17.314,221,92.06
17.333,220,92.53
17.351,220,91.46
17.371,220,92.87
17.389,220,92.56
17.408,219,92.87
17.426,218,92.28
17.445,219,91.95
17.464,219,93.77
17.482,219,92.38
17.502,218,93.74
17.520,217,94.16
17.539,215,94.79
17.557,215,94.91
17.576,215,93.67
17.595,214,93.43
17.613,213,93.76
17.632,212,93.94
17.651,212,94.52
17.670,212,95.98
17.688,212,95.49
17.708,211,94.76
17.726,210,96.44
17.744,208,95.59
17.763,207,96.37
17.782,208,95.40
17.801,208,96.78
17.819,207,96.49
17.839,207,97.36
17.857,207,96.27
17.875,207,96.48
17.894,205,98.12
17.913,207,96.54
17.932,206,98.28
17.950,206,98.35
17.970,205,98.38
17.988,205,96.42
18.007,204,96.65
18.025,205,97.94
18.044,205,98.09
18.063,205,97.41
18.081,205,96.83
18.101,204,96.85
18.119,203,98.67
18.138,203,98.14
18.156,203,98.58
18.176,202,97.89
18.194,202,97.19
18.212,202,98.63
18.231,203,97.39
18.250,201,97.84
18.269,201,97.94
18.287,202,99.11
18.307,201,97.85
18.325,202,97.46
18.343,202,98.35
18.362,202,97.85
18.381,202,97.85
18.400,202,97.55
18.418,202,97.87
18.438,201,99.13
18.456,201,97.89
18.475,202,98.04
18.493,201,97.99
18.512,201,99.67
18.531,201,99.70
18.549,201,98.48
18.569,201,100.15
18.588,200,98.91
18.607,199,100.27
18.626,199,98.92
18.646,200,99.81
18.664,199,100.27
18.683,200,99.45
18.703,199,99.88
18.721,200,99.89
18.740,201,99.59
18.758,199,99.48
18.778,200,99.08
18.796,200,99.08
18.814,200,99.47
18.834,201,99.86
18.852,201,100.27
18.872,200,99.54
18.890,201,99.42
18.910,201,98.58
18.928,199,99.45
18.947,200,98.79
18.966,200,98.74
18.984,199,100.90
19.004,200,100.28
19.023,198,99.86
19.043,198,100.83
19.062,196,101.47
19.082,196,100.81
19.102,196,100.11
19.122,196,100.62
19.141,196,101.56
19.161,195,100.83
19.181,196,102.26
19.201,195,101.27
19.220,194,101.75
19.240,194,101.06
19.260,193,101.27
19.279,194,101.06
19.300,192,101.63
19.319,193,103.45
19.339,193,103.16
19.358,192,104.16
19.379,190,105.15
19.398,192,104.02
19.418,189,105.03
19.438,190,109.67
19.458,189,108.88
19.477,188,109.53
19.496,188,109.65
19.517,188,110.94
19.536,187,110.40
19.556,187,112.23
19.576,185,112.32
19.596,186,112.10
19.615,185,113.92
19.636,184,111.69
19.655,183,113.80
19.675,185,112.64
19.694,182,112.98
19.715,183,177.28
19.734,181,113.41
19.753,181,176.56
19.774,181,107.03
19.793,181,106.27
19.813,180,107.81
19.833,180,108.77
19.853,181,107.54
19.872,179,110.67
19.892,180,108.65
19.912,179,108.60
19.932,179,108.34
19.951,179,108.39
19.972,178,108.04
19.991,179,107.15
20.011,179,107.34
20.031,179,107.00
20.050,179,107.37
20.070,179,107.51
20.089,180,107.47
20.110,179,106.62
20.129,178,107.42
20.149,179,108.24
20.169,178,108.26
20.189,179,107.36
20.208,178,107.93
20.228,179,107.15
20.248,179,106.42
20.268,178,106.90
20.287,178,106.96
20.307,177,109.00
20.327,177,108.24
20.346,178,107.15
20.367,178,107.22
20.386,178,108.82
20.406,177,107.71
20.425,177,109.82
20.446,178,107.25
20.465,177,108.58
20.485,177,107.76
20.505,177,109.34
20.525,179,109.36
20.544,177,108.21
20.564,177,109.06
20.584,178,108.17
20.603,177,107.92
20.623,177,108.44
20.643,176,108.09
20.663,177,108.31
20.682,176,108.44
20.703,177,109.41
20.722,177,110.23
20.742,176,108.77
20.761,176,109.28
20.782,176,109.36
20.801,174,110.02
20.820,175,109.68
20.841,175,111.38
20.860,175,110.26
20.880,175,117.06
20.900,174,111.86
20.920,173,134.62
20.939,173,111.40
20.959,173,111.52
20.979,171,262.50
20.999,171,178.67
21.018,171,181.99
21.039,170,116.72
21.058,168,146.51
21.078,169,179.88
21.098,169,149.40
21.117,168,113.17
21.137,167,113.87
21.156,167,112.83
21.177,167,113.00
21.196,167,113.48
21.216,166,114.38
21.236,167,113.08
21.256,168,112.85
21.275,167,113.27
21.296,166,113.65
21.315,166,114.53
21.335,166,113.44
21.354,165,115.94
21.374,166,113.95
21.394,165,113.31
21.413,166,113.46
21.434,165,114.00
21.453,165,114.16
21.473,165,114.82
21.492,165,114.02
21.513,164,113.32
21.532,163,113.58
21.552,163,114.10
21.572,163,113.83
21.592,161,114.41
21.611,161,114.72
21.632,161,114.82
21.651,160,115.04
21.670,161,114.85
21.690,160,115.41
21.710,159,115.18
21.730,159,116.71
21.749,159,115.92
21.770,159,115.65
21.789,158,115.77
21.809,158,117.15
21.829,158,116.88
21.849,158,117.37
21.868,158,117.57
21.888,157,116.67
21.908,158,117.96
21.927,159,117.69
21.947,158,116.76
21.967,157,119.29
21.987,157,118.00
22.006,158,117.56
22.026,158,117.13
22.046,157,116.72
22.066,157,116.42
22.085,157,117.18
22.106,158,118.46
22.125,157,116.82
22.145,159,116.45
22.165,156,116.52
22.184,157,118.66
22.204,158,116.79
22.223,158,117.59
22.244,156,116.82
22.263,156,118.66
22.283,156,116.94
22.303,157,118.22
22.323,158,117.03
22.342,157,117.57
22.363,158,118.46
22.382,156,119.36
22.402,156,119.43
22.421,155,117.86
22.441,154,117.93
22.461,155,118.07
22.480,155,118.80
22.501,155,117.56
22.520,154,118.00
22.540,154,117.59
22.560,155,120.09
22.580,154,118.01
22.599,156,118.42
22.619,154,117.62
22.639,156,117.64
22.659,154,117.76
22.678,153,117.67
22.699,154,118.13
22.718,155,118.58
22.737,154,118.61
22.757,153,119.94
22.777,154,119.54
22.797,153,118.85
22.816,151,119.36
22.837,151,118.22
22.856,151,118.88
22.876,150,120.29
22.896,149,118.83
22.916,150,120.72
22.935,149,119.63
22.955,141,120.24
22.975,138,119.71
22.994,135,122.16
23.014,138,122.08
23.034,143,120.75
23.054,141,121.87
23.073,141,122.32
23.094,140,123.06
23.113,139,124.17
23.133,139,123.30
23.152,138,124.46
23.173,139,123.86
23.192,137,123.64
23.212,137,126.24
23.232,137,125.10
23.251,136,126.33
23.271,137,124.37
23.290,136,125.66
23.311,137,124.30
23.330,138,125.68
23.350,136,126.57
23.370,137,126.02
23.390,137,124.34
23.409,137,124.46
23.430,137,124.47
23.449,136,123.96
23.469,137,124.93
23.488,138,125.80
23.508,139,125.73
23.528,137,124.17
23.547,137,124.25
23.568,138,124.78
23.587,137,124.32
23.607,138,125.80
23.627,137,125.46
23.647,138,124.27
23.666,137,124.95
23.686,136,125.15
23.706,135,127.21
23.726,135,125.70
23.745,136,125.36
23.766,135,126.58
23.785,135,127.06
23.804,135,126.00
23.825,134,126.51
23.844,134,127.36
23.864,134,126.29
23.883,127,127.25
23.904,128,126.41
23.923,125,127.94
23.943,126,126.36
23.963,122,127.69
23.983,122,126.94
24.002,124,127.67
24.022,125,127.45
24.042,125,128.37
24.061,128,128.72
24.081,128,130.17
24.101,129,133.57
24.121,129,130.07
24.140,129,129.03
24.161,128,128.64
24.180,126,128.79
24.200,126,129.83
24.219,126,129.15
24.240,126,132.41
24.259,125,128.96
24.279,126,129.49
24.299,126,131.04
24.318,125,130.48
24.338,126,130.65
24.358,126,132.16
24.378,125,132.24
24.397,125,134.96
24.417,127,133.67
24.437,125,130.49
24.457,126,131.78
24.476,127,133.03
24.497,125,129.80
24.516,126,130.25
24.536,126,130.37
24.555,126,131.82
24.576,126,129.39
24.595,126,131.89
24.614,126,131.39
24.635,125,130.27
24.654,124,131.89
24.674,125,130.76
24.694,124,131.10
24.714,124,131.95
24.733,124,130.80
24.753,125,130.71
24.773,124,132.40
24.793,123,132.11
24.812,125,130.85
24.833,124,130.73
24.852,125,133.26
24.871,123,132.96
24.892,123,132.86
24.911,122,133.71
24.931,124,133.82
24.950,123,135.44
24.971,122,135.10
24.990,122,136.14
25.010,121,134.91
25.030,122,133.42
25.050,124,135.34
25.069,123,136.02
25.090,121,135.93
25.109,122,167.62
25.128,121,168.18
25.148,122,142.12
25.168,122,134.66
25.188,120,141.81
25.207,121,133.03
25.228,121,135.39
25.247,119,133.48
25.267,120,135.00
25.286,119,133.09
25.307,118,138.02
25.326,118,134.16
25.346,117,135.95
25.366,117,133.71
25.385,117,136.51
25.405,118,135.03
25.425,117,136.49
25.445,116,135.93
25.464,115,137.84
25.484,115,135.12
25.504,116,137.89
25.524,115,135.68
25.543,116,136.70
25.564,114,136.12
25.583,116,137.21
25.603,115,137.00
25.623,114,138.11
25.643,114,136.14
25.662,115,137.04
25.681,114,137.53
25.702,113,140.20
25.721,112,139.08
25.741,112,140.42
25.761,112,137.96
25.781,113,139.11
25.800,112,139.26
25.820,111,142.19
25.840,113,140.88
25.860,113,141.02
25.879,112,140.22
25.900,112,139.03
25.919,112,138.94
25.938,111,139.96
25.959,112,143.04
25.978,111,141.70
25.998,113,140.27
26.017,113,139.86
26.038,113,140.85
26.057,113,140.44
26.077,112,142.12
26.097,112,139.55
26.117,113,139.91
26.136,113,141.30
26.157,112,142.12
26.176,111,140.74
26.195,113,140.83
26.215,111,148.72
26.235,112,140.44
26.255,112,140.00
26.274,111,140.81
26.295,110,141.75
26.314,113,177.23
26.334,112,141.42
26.354,111,145.08
26.374,110,140.51
26.393,109,141.36
26.413,110,140.96
26.433,109,141.37
26.452,110,145.11
26.472,110,141.00
26.492,109,141.03
26.512,110,140.98
26.531,109,142.87
26.551,110,143.00
26.571,109,141.73
26.591,110,142.02
26.610,110,143.09
26.631,108,144.06
26.650,109,144.67
26.670,109,144.98
26.690,110,143.96
26.710,109,145.42
26.729,108,144.16
26.748,108,148.04
26.769,107,145.93
26.788,107,147.58
26.808,107,149.35
26.828,105,150.52
26.848,105,147.95
26.867,105,150.25
26.888,104,152.97
26.907,106,176.75
26.927,104,178.62
26.946,103,155.04
26.967,103,150.91
26.986,103,146.83
27.005,102,150.03
27.026,103,155.53
27.045,102,176.32
27.065,101,150.94
27.084,102,150.01
27.105,102,154.09
27.124,102,150.14
27.144,102,151.78
27.164,102,153.73
27.184,101,150.01
27.203,101,152.20
27.224,101,146.80
27.243,101,150.59
27.262,102,153.65
27.282,100,148.36
27.302,101,149.28
27.322,100,150.71
27.341,102,153.63
27.362,100,152.92
27.381,100,150.11
27.401,101,150.18
27.421,99,154.87
27.440,99,152.52
27.458,101,150.23
27.478,100,149.74
27.498,99,151.05
27.516,101,151.49
27.536,100,150.69
27.556,102,152.46
27.576,100,153.44
27.595,100,150.65
27.615,100,151.88
27.635,99,151.50
27.654,102,155.47
27.673,99,155.14
27.693,100,151.83
27.712,100,154.51
27.731,99,153.43
27.750,100,150.13
27.770,99,150.18
27.789,100,150.74
27.808,99,151.06
27.828,98,156.20
27.846,98,156.20
27.865,99,149.89
27.883,98,150.28
27.902,97,154.63
27.921,98,155.65
27.939,99,153.65
27.959,97,152.07
27.977,98,151.71
27.996,98,152.27
28.014,96,152.80
28.034,97,155.89
28.052,98,151.18
28.070,97,150.76
28.090,96,154.11
28.108,96,152.08
28.127,96,152.61
28.145,96,151.83
28.165,97,150.21
28.183,98,157.88
28.201,96,155.47
28.221,97,155.13
28.239,96,158.85
28.258,99,153.12
28.276,99,154.39
28.296,99,156.94
28.314,98,156.86
28.333,99,161.23
28.352,100,177.31
28.371,98,154.79
28.390,99,152.71
28.408,99,155.33
28.428,98,176.46
28.446,98,154.77
28.465,96,162.64
28.484,97,176.89
28.503,97,158.29
28.521,98,176.90
28.539,95,176.43
28.559,97,159.38
28.577,97,160.24
28.596,96,156.66
28.614,95,157.25
28.634,96,158.63
28.652,94,156.79
28.670,95,160.74
28.690,96,162.42
28.708,95,160.28
28.727,96,157.86
28.745,96,156.66
28.765,94,155.84
28.783,95,156.32
28.802,93,159.29
28.821,95,156.37
28.839,93,156.81
28.858,94,158.10
28.876,94,161.50
28.896,94,164.71
28.914,93,176.75
28.933,93,160.07
28.952,93,158.02
28.971,93,157.27
28.989,92,159.12
29.007,92,158.85
29.027,91,158.49
29.045,92,158.00
29.064,91,161.50
29.083,90,157.66
29.102,92,156.38
29.120,92,177.70
29.138,92,166.09
29.158,93,177.70
29.176,92,162.86
29.195,91,161.28
29.213,93,166.48
29.233,92,175.64
29.251,93,156.89
29.270,94,155.69
29.289,94,156.55
29.307,93,156.49
29.326,94,156.59
29.344,94,156.64
29.364,93,177.63
29.382,93,164.12
29.401,93,159.60
29.420,92,158.47
29.438,93,159.70
29.457,92,177.74
29.475,92,176.44
29.495,90,157.76
29.513,90,158.25
29.532,91,177.75
29.551,90,176.44
29.570,91,178.47
29.588,91,177.68
29.606,91,176.85
29.626,92,177.58
29.644,92,178.43
29.663,91,181.46
29.682,91,178.11
29.701,92,177.17
29.719,91,177.31
29.737,92,178.13
29.757,92,166.12
29.775,93,167.35
29.794,93,167.47
29.812,93,161.81
29.832,92,168.32
29.850,92,172.52
29.869,92,162.42
29.888,91,164.12
29.906,90,165.38
29.925,91,165.73
29.943,90,161.82
29.963,90,164.88
29.981,88,164.78
30.000,91,166.87
30.019,89,165.05
30.038,89,166.31
30.056,88,167.77
30.074,88,166.53
30.094,89,165.84
30.112,89,165.53
30.131,90,166.63
30.150,87,165.26
30.169,86,167.48
30.187,86,163.40
30.205,86,169.29
30.225,85,165.43
30.243,85,165.73
30.262,86,165.67
30.281,85,165.75
30.300,85,176.32
30.318,85,165.53
30.337,84,165.80
30.356,84,168.78
30.374,84,167.13
30.393,85,176.87
30.411,86,176.87
30.431,85,170.37
30.449,86,166.72
30.468,85,169.52
30.487,86,169.08
30.505,86,167.42
30.524,85,165.16
30.542,85,171.24
30.562,86,177.21
30.580,85,168.06
30.599,84,166.52
30.618,84,165.39
30.637,84,166.69
30.655,83,174.78
30.673,84,167.01
30.693,84,171.33
30.711,84,174.71
30.730,83,167.18
30.749,84,171.19
30.768,83,173.57
30.786,85,170.88
30.804,86,179.42
30.824,84,174.25
30.842,84,170.19
30.861,84,171.58
30.880,83,173.47
30.899,84,169.39
30.917,83,172.89
30.936,83,174.71
30.955,83,172.69
30.973,85,173.94
30.992,83,172.02
31.010,83,177.26
31.030,84,176.85
31.048,84,174.83
31.067,83,177.33
31.086,84,177.33
31.105,82,171.96
31.123,82,176.83
31.141,83,174.06
31.161,84,175.17
31.179,83,174.45
31.198,83,178.11
31.217,82,174.39
31.236,83,172.87
31.254,83,174.34
31.272,82,172.41
31.292,82,175.98
31.310,81,175.15
31.329,81,259.15
31.348,82,175.58
31.367,81,173.52
31.385,79,175.24
31.404,81,177.33
31.423,80,183.29
31.441,81,175.44
31.460,79,176.02
31.479,80,171.46
31.498,80,176.00
31.516,79,190.71
31.535,79,175.15
31.554,80,176.56
31.572,80,177.96
31.591,79,176.46
31.609,79,178.18
31.629,80,176.70
31.647,79,175.56
31.666,79,176.09
31.685,78,175.27
31.704,79,176.39
31.722,79,176.04
31.740,78,175.15
31.760,78,174.30
31.778,78,173.03
31.797,79,174.32
31.816,78,174.73
31.835,79,172.60
31.853,80,173.01
31.872,80,171.75
31.891,80,172.60
31.909,80,174.17
31.928,79,174.71
31.947,80,175.13
31.966,81,174.64
31.984,80,176.87
32.003,79,174.79
32.022,79,176.53
32.040,79,176.00
32.059,79,244.68
32.078,79,177.68
32.097,80,177.23
32.115,79,200.52
32.134,78,175.95
32.153,78,177.28
32.172,79,179.23
32.190,79,176.85
32.208,79,177.34
32.228,77,243.36
32.246,79,175.56
32.265,77,177.70
32.284,77,178.43
32.303,78,175.90
32.321,76,175.59
32.339,77,175.64
32.359,77,176.31
32.377,77,243.39
32.396,77,178.13
32.415,76,178.53
32.434,76,175.93
32.452,76,245.04
32.471,77,178.53
32.490,76,180.08
32.508,77,176.70
32.527,77,176.87
32.546,76,243.75
32.565,75,177.14
32.583,76,177.29
32.602,76,178.14
32.621,75,177.29
32.640,76,244.49
32.658,75,176.82
32.677,76,178.13
32.696,75,176.73
32.714,75,176.83
32.733,75,178.94
32.752,75,258.30
32.771,76,178.79
32.789,74,175.97
32.807,75,178.09
32.827,74,177.99
32.845,75,175.58
32.864,74,175.19
32.883,74,176.44
32.902,74,175.90
32.920,74,175.63
32.939,74,176.44
32.958,75,174.76
32.976,73,176.87
32.995,73,178.14
33.014,72,178.91
33.033,73,177.21
33.051,72,177.29
33.070,73,178.16
33.089,73,176.44
33.107,72,178.42
33.126,74,176.90
33.145,73,177.72
33.164,74,180.93
33.182,73,176.39
33.201,72,176.87
33.220,69,175.98
33.239,71,175.90
33.257,69,176.43
33.276,67,177.31
33.295,68,175.90
33.313,66,178.11
33.332,67,175.98
33.351,70,176.85
33.370,71,176.73
33.388,70,176.82
33.406,70,177.28
33.426,70,177.17
33.444,70,177.65
33.463,69,177.28
33.482,69,177.28
33.501,71,177.57
33.519,70,177.24
33.538,70,177.26
33.557,70,176.73
33.575,71,178.50
33.594,70,177.68
33.613,71,182.56
33.632,72,178.01
33.650,71,178.53
33.669,71,178.11
33.688,70,177.14
33.707,70,177.99
33.725,69,178.91
33.744,69,178.53
33.763,67,179.67
33.781,68,178.52
33.800,68,177.68
33.819,68,177.57
33.838,67,178.42
33.856,67,178.13
33.875,66,179.33
33.894,67,177.16
33.912,68,177.24
33.931,67,177.24
33.950,67,177.99
33.969,66,178.43
33.987,67,177.29
34.006,68,181.34
34.025,67,176.31
34.043,67,177.26
34.062,67,177.24
34.081,69,177.24
34.100,67,177.23
34.118,68,177.26
34.137,68,176.87
34.156,68,177.60
34.174,67,178.59
34.193,68,176.41
34.212,68,176.39
34.231,69,177.58
34.249,68,176.85
34.268,67,176.43
34.287,68,177.99
34.306,67,176.29
34.324,66,176.82
34.343,65,177.26
34.362,66,176.31
34.380,66,179.37
34.399,66,176.83
34.418,66,176.83
34.437,66,176.29
34.455,65,177.68
34.475,67,176.83
34.493,66,178.42
34.511,66,176.83
34.530,66,177.68
34.549,67,176.83
34.568,66,178.86
34.586,66,176.85
34.605,67,177.67
34.624,65,175.87
34.642,66,177.26
34.661,66,177.24
34.680,65,176.82
34.699,65,178.43
34.717,63,176.41
34.736,65,176.82
34.755,65,176.31
34.774,65,177.23
34.792,64,176.83
34.811,64,177.68
34.830,63,176.73
34.848,62,178.53
34.867,62,177.65
34.886,62,176.73
34.905,63,177.58
34.923,63,176.43
34.942,63,178.11
34.961,63,177.16
34.979,62,177.24
34.998,62,176.41
35.017,60,177.99
35.036,61,177.57
35.054,60,177.24
35.074,61,178.14
35.092,61,176.72
35.110,60,178.94
35.129,60,177.23
35.148,57,176.82
35.167,57,177.16
35.185,58,176.41
35.204,59,176.83
35.223,59,176.31
35.241,60,176.38
35.260,59,176.85
35.279,60,176.39
35.298,61,177.58
35.316,60,178.11
35.335,61,176.83
35.354,60,178.02
35.373,62,177.28
35.391,61,178.53
35.410,62,176.41
35.429,61,176.29
35.447,62,177.67
35.466,62,177.26
35.485,63,179.25
35.504,62,177.99
35.522,61,180.20
35.542,62,176.43
35.560,63,177.17
35.578,62,176.41
35.597,61,177.28
35.616,63,179.67
35.635,63,176.75
35.653,62,177.28
35.673,62,177.26
35.691,62,177.60
35.709,62,176.43
35.728,61,178.11
35.747,58,177.28
35.766,58,176.77
35.784,57,177.28
35.803,57,177.31
35.822,57,178.01
35.841,58,176.41
35.859,58,177.70
35.878,59,176.83
35.897,60,178.02
35.915,59,176.39
35.934,58,178.13
35.953,58,176.75
35.972,60,175.56
35.990,59,177.28
36.009,59,177.28
36.028,59,176.32
36.046,59,175.98
36.065,59,176.48
36.084,60,176.75
36.103,59,177.19
36.121,60,176.43
36.141,61,175.98
36.159,59,176.32
36.177,59,176.41
36.196,60,177.29
36.215,60,176.87
36.234,61,177.19
36.252,59,176.49
36.272,61,176.44
36.290,61,176.32
36.308,61,176.85
36.327,60,177.28
36.346,59,176.87
36.365,60,176.73
36.383,60,176.00
36.402,61,176.85
36.421,60,177.17
36.440,59,177.29
36.458,60,176.83
36.477,61,176.85
36.496,61,176.32
36.514,61,177.70
36.533,61,176.87
36.552,60,176.75
36.571,60,178.14
36.589,61,177.33
36.609,59,175.98
36.627,60,175.90
36.645,59,179.38
36.664,57,176.83
36.683,54,178.47
36.702,54,177.60
36.720,56,176.39
36.740,57,175.98
36.758,58,175.88
36.776,58,178.98
36.795,57,176.83
36.814,57,177.62
36.833,57,178.04
36.851,57,176.87
36.871,58,176.02
36.889,56,176.32
36.908,57,178.13
36.926,57,176.83
36.945,57,177.70
36.964,57,176.77
36.982,57,177.29
37.001,57,177.70
37.020,56,177.60
37.039,57,176.44
37.057,57,176.85
37.076,57,177.70
37.095,58,177.17
37.113,57,177.28
37.132,58,176.44
37.151,57,176.75
37.170,57,176.43
37.188,57,178.55
37.208,56,177.29
37.226,57,176.73
37.244,57,176.43
37.263,56,177.28
37.282,59,178.01
37.301,56,177.16
37.319,57,177.28
37.339,57,176.39
37.357,57,176.32
37.376,56,176.83
37.394,58,177.26
37.413,57,178.45
37.432,59,176.29
37.450,56,176.39
37.470,56,176.41
37.488,58,177.17
37.507,58,177.29
37.525,56,176.83
37.544,58,176.82
37.563,57,176.73
37.581,56,176.39
37.600,58,176.82
37.619,57,177.16
37.638,56,176.39
37.656,57,176.39
37.676,57,178.11
37.694,58,179.27
37.712,55,176.82
37.731,55,176.83
37.750,57,176.72
37.769,56,176.82
37.787,56,177.68
37.807,56,177.28
37.825,55,177.57
37.843,57,179.35
37.862,55,178.09
37.881,57,176.75
37.900,57,177.58
37.918,57,178.11
37.938,56,176.82
37.956,55,177.99
37.975,57,178.52
37.993,56,178.08
38.012,55,176.82
38.031,58,177.14
38.049,55,176.85
38.069,55,176.83
38.087,57,178.43
38.106,55,177.67
38.124,57,179.78
38.144,57,178.42
38.162,55,176.31
38.180,56,177.68
38.199,56,176.82
38.218,55,177.16
38.237,55,176.41
38.255,56,176.36
38.275,55,176.78
38.293,57,177.58
38.311,57,176.82
38.330,56,176.82
38.349,56,177.57
38.368,56,178.52
38.386,57,180.20
38.406,55,177.24
38.424,57,177.99
38.443,55,176.39
38.461,56,176.83
38.480,56,177.55
38.499,57,176.73
38.517,55,176.83
38.537,56,176.87
38.555,56,178.82
38.574,56,178.11
38.592,55,177.24
38.611,55,176.78
38.630,57,178.43
38.648,55,177.68
38.668,56,177.65
38.686,56,176.32
38.705,56,176.39
38.723,56,177.26
38.743,57,177.26
38.761,57,179.25
38.779,56,178.08
38.798,55,176.82
38.817,55,177.97
38.836,56,178.94
38.854,55,177.28
38.874,55,178.42
38.892,56,177.17
38.910,55,176.39
38.929,54,178.11
38.948,55,176.72
38.967,54,181.83
38.985,54,177.26
39.005,55,179.25
39.023,56,177.99
39.042,55,176.38
39.060,56,177.65
39.079,55,176.77
39.098,54,176.72
39.116,56,176.41
39.136,54,178.93
39.154,54,177.99
39.173,54,176.41
39.191,55,176.80
39.211,55,177.55
39.229,54,179.69
39.247,55,177.24
39.267,55,177.68
39.285,56,178.84
39.304,54,176.41
39.322,54,176.82
39.342,54,176.80
39.360,54,176.73
39.378,54,176.41
39.397,54,177.67
39.416,54,177.55
39.435,54,176.82
39.453,54,178.09
39.473,53,177.23
39.491,54,176.70
39.510,54,178.11
39.528,55,178.53
39.547,55,176.73
39.566,54,178.91
39.584,55,176.82
39.604,55,176.39
39.622,55,176.31
39.641,53,178.96
39.659,55,176.83
39.678,53,177.99
39.697,54,177.58
39.715,53,176.82
39.735,53,177.26
39.753,53,177.14
39.772,53,178.52
39.790,54,177.26
39.810,53,176.83
39.828,55,177.97
39.846,54,177.26
39.866,53,178.52
39.884,54,176.73
39.903,54,177.67
39.921,54,179.37
39.941,54,178.01
39.959,53,179.28
39.977,53,178.11
39.996,52,178.09
40.015,55,177.57
40.034,53,179.37
40.052,53,176.41
40.072,55,177.67
40.090,54,176.32
40.109,54,176.41
40.127,53,178.11
40.146,53,180.08
40.165,53,178.98
40.183,53,178.53
40.203,54,177.28
40.221,53,177.57
40.240,53,176.39
40.258,53,175.98
40.278,53,177.58
40.296,53,176.31
40.314,52,176.85
40.334,52,177.70
40.352,53,176.73
40.371,53,176.90
40.389,53,177.70
40.409,53,177.28
40.427,51,176.29
40.445,53,177.70
40.465,53,177.28
40.483,52,176.75
40.502,53,176.87
40.520,54,176.43
40.540,54,175.98
40.558,54,176.75
40.577,52,175.98
40.595,54,176.43
40.614,54,176.34
40.633,53,177.72
40.651,52,176.41
40.671,52,176.43
40.689,52,175.92
40.708,53,176.43
40.726,52,177.28
40.745,52,176.31
40.764,53,176.83
40.782,53,180.22
40.802,53,176.41
40.820,52,176.31
40.839,53,176.83
40.857,53,176.87
40.877,53,177.60
40.895,51,178.04
40.913,51,176.43
40.933,49,177.26
40.951,50,176.32
40.970,50,178.14
40.988,49,177.70
41.008,49,176.83
41.026,48,176.75
41.044,45,178.13
41.064,44,177.28
41.082,45,176.34
41.101,45,177.70
41.119,44,176.41
41.139,44,176.87
41.157,43,177.58
41.176,45,176.44
41.194,44,176.87
41.213,44,177.60
41.232,44,178.98
41.250,44,177.68
41.270,45,178.45
41.288,44,177.60
41.307,43,178.57
41.325,43,178.11
41.345,44,178.45
41.363,44,176.87
41.381,44,177.72
41.401,44,178.93
41.419,44,178.45
41.438,43,176.87
41.456,43,178.57
41.476,46,177.17
41.494,44,178.02
41.512,43,178.57
41.532,44,177.28
41.550,44,178.02
41.569,43,177.72
41.587,42,178.16
41.607,43,177.62
41.625,44,177.62
41.644,44,176.44
41.663,44,176.43
41.681,44,177.19
41.700,43,176.87
41.718,44,176.43
41.738,43,176.87
41.756,43,177.19
41.775,44,178.18
41.793,44,176.44
41.812,44,176.77
41.831,43,176.87
41.849,43,176.89
41.869,42,179.30
41.887,42,177.21
41.906,42,178.16
41.924,42,177.29
41.944,43,178.04
41.962,41,176.89
41.980,43,176.85
42.000,41,178.16
42.018,41,178.89
42.037,43,176.02
42.055,43,178.55
42.075,41,176.00
42.093,41,176.78
42.112,42,177.72
42.131,41,178.55
42.149,42,178.04
42.168,41,176.85
42.186,40,176.44
42.206,42,176.43
42.224,40,176.38
42.243,41,176.46
42.262,42,176.46
42.280,41,176.36
42.299,42,176.87
42.317,40,176.46
42.337,41,176.89
42.355,40,176.78
42.374,40,177.74
42.392,41,177.31
42.412,42,177.21
42.430,41,177.31
42.448,40,178.99
42.468,39,178.47
42.486,39,177.21
42.505,39,177.75
42.523,40,176.94
42.543,40,177.19
42.561,40,177.72
42.579,42,176.02
42.599,41,177.31
42.617,39,175.90
42.636,41,176.89
42.654,42,176.44
42.674,42,178.48
42.692,41,176.77
42.711,40,176.87
42.730,41,176.44
42.748,41,176.77
42.767,41,177.31
42.785,41,176.44
42.805,41,176.44
42.823,41,176.78
42.842,40,177.31
42.861,40,177.72
42.880,39,180.13
42.898,39,177.74
42.916,40,177.72
42.936,40,177.31
42.954,39,177.63
42.973,40,176.44
42.991,40,179.40
43.011,41,178.06
43.029,40,177.72
43.047,40,176.89
43.067,40,176.87
43.085,39,176.77
43.104,40,177.29
43.122,40,176.44
43.142,40,178.04
43.160,40,180.22
43.179,40,179.38
43.198,40,180.15
43.216,39,178.48
43.235,41,176.87
43.253,41,177.31
43.273,40,178.47
43.291,40,176.36
43.310,39,176.92
43.329,40,176.44
43.347,39,177.19
43.366,41,177.31
43.384,40,179.42
43.404,38,179.74
43.422,40,178.50
43.441,39,176.89
43.460,39,177.31
43.479,40,178.08
43.497,39,177.74
43.515,40,176.90
43.535,40,176.89
43.553,38,176.36
43.572,39,176.46
43.590,39,179.40
43.610,40,178.93
43.628,40,176.44
43.646,40,178.16
43.666,38,176.46
43.684,38,177.63
43.703,39,177.31
43.721,40,176.90
43.741,38,178.50
43.759,37,177.75
43.778,39,177.29
43.797,39,177.74
43.815,38,176.75
43.834,39,176.89
43.852,38,176.90
43.872,39,176.78
43.890,38,176.36
43.909,38,177.74
43.928,38,177.31
43.947,37,178.06
43.965,38,177.74
43.983,39,178.16
44.003,37,178.91
44.021,36,177.68
44.040,38,177.29
44.059,36,176.46
44.078,37,176.38
44.096,37,176.43
44.114,36,178.16
44.134,36,176.89
44.152,38,177.19
44.171,36,176.46
44.189,36,176.87
44.209,36,176.34
44.227,37,178.16
44.246,36,176.44
44.265,37,176.89
44.283,36,177.21
44.302,37,176.44
44.320,36,177.29
44.340,35,176.34
44.358,36,178.16
44.377,35,177.72
44.396,36,177.72
44.414,35,176.77
44.433,36,177.29
44.451,36,177.70
44.471,35,177.19
44.489,35,175.92
44.508,35,176.44
44.527,35,176.87
44.546,36,177.19
44.564,34,177.29
44.582,34,175.97
44.602,33,176.44
44.620,34,177.17
44.639,34,178.57
44.658,35,177.29
44.677,35,176.75
44.695,35,176.48
44.713,35,177.72
44.733,35,176.02
44.751,36,176.32
44.770,34,176.41
44.788,34,177.28
44.808,35,175.90
44.826,34,177.77
44.845,35,177.31
44.864,35,176.44
44.882,35,176.34
44.901,34,177.29
44.919,33,177.72
44.939,35,176.32
44.957,33,177.29
44.976,33,176.44
44.995,34,178.14
45.014,34,176.34
45.032,35,176.43
45.050,34,176.44
45.070,34,176.00
45.088,34,176.32
45.107,33,176.46
45.126,34,177.72
45.145,34,177.17
45.163,33,177.31
45.181,34,176.85
45.201,34,176.00
45.219,33,176.34
45.238,34,176.43
45.257,34,176.87
45.276,34,176.78
45.294,34,176.85
45.313,33,177.29
45.332,33,175.98
45.350,33,176.32
45.369,33,178.14
45.387,32,176.87
45.407,33,178.04
45.425,33,177.72
45.444,33,176.43
45.463,34,177.70
45.481,32,176.31
45.500,31,177.72
45.518,32,176.83
45.538,36,176.00
45.556,36,178.13
45.575,37,176.00
45.594,37,177.28
45.613,37,177.60
45.631,38,176.83
45.649,37,177.70
45.669,37,176.43
45.687,38,177.17
45.706,37,178.55
45.725,38,177.68
45.744,38,176.77
45.762,37,177.31
45.780,37,176.43
45.800,35,177.28
45.818,36,177.17
45.837,37,178.14
45.856,37,177.28
45.875,39,177.19
45.893,39,177.31
45.912,40,176.43
45.931,40,177.72
45.949,40,178.89
45.968,39,177.29
45.986,39,178.14
46.006,35,177.62
46.024,33,177.29
46.043,35,176.43
46.062,36,177.28
46.081,33,176.75
46.099,35,176.41
46.117,36,177.28
46.137,37,176.32
46.155,37,176.43
46.174,37,176.46
46.193,37,176.46
46.212,37,177.62
46.230,35,177.72
46.248,35,177.72
46.268,36,176.46
46.286,37,178.04
46.305,36,176.00
46.324,37,176.44
46.343,35,176.77
46.361,38,178.13
46.380,37,176.48
46.399,37,177.26
46.417,37,176.36
46.436,36,176.87
46.455,38,176.43
46.474,38,177.19
46.492,37,176.85
46.511,38,177.29
46.530,38,177.72
46.548,38,177.17
46.567,37,176.85
46.585,37,180.95
46.605,37,177.16
46.623,35,178.53
46.642,35,176.43
46.661,37,177.72
46.680,38,178.01
46.698,37,176.44
46.716,38,178.14
46.736,37,177.19
46.754,38,176.85
46.773,38,177.28
46.792,39,177.28
46.811,39,177.17
46.829,39,177.29
46.848,38,176.00
46.867,38,176.75
46.885,38,176.75
46.904,38,176.87
46.923,38,176.83
46.942,39,177.62
46.960,40,179.38
46.979,39,178.52
46.998,38,179.30
47.016,38,177.60
47.035,40,176.82
47.054,38,177.28
47.073,38,177.16
47.091,39,177.26
47.110,38,177.72
47.129,37,177.31
47.148,39,178.02
47.166,38,176.83
47.184,39,176.83
47.204,40,177.17
47.222,39,178.13
47.241,39,179.37
47.260,39,177.28
47.279,39,177.55
47.297,39,177.29
47.315,38,177.70
47.335,38,176.73
47.353,38,177.26
47.372,39,181.46
47.391,37,176.85
47.410,39,178.86
47.428,38,176.87
47.447,39,176.83
47.466,38,177.17
47.484,37,177.14
47.503,37,178.11
47.522,37,178.93
47.541,38,176.73
47.559,38,179.79
47.578,37,178.11
47.597,37,177.28
47.616,39,176.75
47.634,38,177.26
47.653,38,180.10
47.672,37,176.72
47.690,38,176.83
47.709,37,182.27
47.728,38,176.83
47.747,38,176.73
47.765,37,176.83
47.783,38,176.41
47.803,37,177.58
47.821,36,178.09
47.840,37,176.85
47.859,35,177.26
47.878,35,178.82
47.896,35,179.79
47.915,36,177.26
47.934,37,176.73
47.952,36,176.82
47.971,34,178.09
47.990,35,177.26
48.009,35,176.73
48.027,35,177.24
48.046,36,180.18
48.065,36,178.45
48.083,35,177.58
48.102,35,181.87
48.121,36,179.35
48.140,35,177.97
48.158,35,177.67
48.177,36,178.52
48.196,36,178.43
48.215,36,176.75
48.233,35,176.83
48.252,34,177.67
48.271,35,178.42
48.289,36,180.17
48.308,37,180.59
48.327,36,177.99
48.346,34,177.14
48.364,36,178.96
48.382,35,178.55
48.402,35,177.58
48.420,34,176.83
48.439,34,177.68
48.458,34,177.68
48.477,35,178.01
48.495,35,177.68
48.514,35,176.82
48.533,36,176.27
48.551,34,178.52
48.570,35,176.83
48.589,35,177.24
48.608,35,179.67
48.626,36,179.35
48.645,35,176.83
48.664,35,178.40
48.683,36,177.12
48.701,36,176.82
48.720,35,176.82
48.739,36,176.73
48.757,34,178.09
48.776,35,176.82
48.795,35,177.23
48.814,35,178.82
48.832,34,178.53
48.851,35,178.91
48.870,35,176.70
48.888,36,177.24
48.907,33,177.23
48.926,34,177.24
48.945,33,176.72
48.963,35,176.83
48.982,34,176.82
49.001,35,182.58
49.019,33,178.08
49.038,35,176.82
49.057,36,176.82
49.076,35,176.72
49.094,34,177.67
49.113,36,176.80
49.132,35,178.01
49.150,33,177.24
49.169,35,177.65
49.188,34,177.67
49.207,33,176.73
49.225,34,176.83
49.244,34,176.83
49.263,34,177.55
49.282,34,177.57
49.300,34,177.68
49.319,35,176.85
49.338,33,180.10
49.356,36,176.39
49.375,34,178.11
49.394,34,177.26
49.413,34,177.16
49.431,34,178.09
49.451,33,178.08
49.469,34,177.16
49.487,35,178.11
49.506,36,177.68
49.525,34,176.82
49.544,35,178.01
49.562,35,177.67
49.581,35,176.83
49.600,35,178.01
49.618,34,177.67
49.637,36,177.26
49.656,35,176.41
49.675,34,178.86
49.693,36,176.39
49.712,34,176.83
49.731,35,176.32
49.750,35,176.82
49.768,35,176.41
49.787,33,178.94
49.806,33,177.16
49.824,35,178.52
49.843,34,176.82
49.862,35,176.41
49.881,34,179.25
49.899,34,178.11
49.918,34,176.83
49.937,33,177.16
49.955,33,178.11
49.974,34,176.83
49.993,34,179.69
50.012,33,176.29
50.030,34,176.82
50.050,33,176.41
50.068,34,177.57
50.086,34,176.39
50.105,33,176.83
50.124,34,178.42
50.143,34,178.43
50.161,34,177.24
50.180,34,177.26
50.199,33,178.02
50.217,35,177.23
50.236,33,176.83
50.255,35,176.83
50.274,34,178.82
50.292,34,177.65
50.311,33,177.26
50.330,35,176.29
50.349,33,177.26
50.367,33,176.41
50.386,34,176.83
50.405,33,177.97
50.423,31,178.09
50.442,32,176.82
50.461,34,177.55
50.480,32,178.01
50.498,33,177.68
50.518,34,177.28
50.536,32,176.75
50.554,32,180.17
50.573,32,178.08
50.592,32,180.49
50.611,33,178.01
50.629,32,177.24
50.649,33,178.94
50.667,32,177.17
50.685,33,182.94
50.704,33,177.67
50.723,33,176.80
50.742,33,178.86
50.760,33,177.28
50.779,33,177.23
50.798,33,178.01
50.817,33,178.08
50.835,34,178.50
50.854,34,176.80
50.873,34,177.99
50.891,33,179.74
50.910,33,177.65
50.929,33,177.55
50.948,33,177.67
50.966,33,178.52
50.985,33,178.09
51.004,33,178.81
51.022,35,176.82
51.041,33,176.80
51.060,32,178.84
51.079,33,179.23
51.097,34,178.93
51.117,33,178.08
51.135,34,176.72
51.153,33,177.67
51.172,32,177.67
51.191,34,178.81
51.210,33,176.70
51.228,32,178.93
51.248,34,177.67
51.266,33,177.99
51.284,33,178.08
51.303,33,179.33
51.322,34,177.24
51.341,33,178.38
51.359,31,178.93
51.378,33,176.82
51.397,31,178.40
51.416,32,178.09
51.434,34,178.09
51.453,31,177.63
51.472,33,181.73
51.490,31,177.21
51.509,32,179.76
51.528,33,177.12
51.547,31,180.17
51.565,31,177.24
51.585,31,177.65
51.603,32,178.81
51.621,33,177.67
51.640,32,178.50
51.659,33,177.53
51.678,31,177.97
51.696,33,178.52
51.716,32,179.33
51.734,32,177.55
51.752,31,176.39
51.771,33,178.06
51.790,32,180.06
51.809,33,177.57
51.827,32,177.24
51.847,33,177.23
51.865,32,177.57
51.884,31,178.09
51.902,33,178.94
51.921,32,259.13
51.940,32,178.81
51.958,32,180.15
51.977,32,260.00
51.996,32,260.83
52.015,32,177.24
52.033,32,178.50
52.052,32,177.23
52.071,33,178.82
52.089,34,178.91
52.108,33,259.11
52.127,31,180.08
52.146,31,176.80
52.164,33,179.35
52.184,31,177.68
52.202,31,178.40
52.220,32,180.57
52.239,31,178.94
52.258,31,177.99
52.277,32,177.58
52.295,31,177.24
52.315,31,177.23
52.333,31,260.39
52.352,32,178.08
52.370,32,182.21
52.389,31,178.38
52.408,31,179.27
52.426,32,180.59
52.446,31,177.24
52.464,29,180.10
52.483,27,177.26
52.501,26,178.09
52.520,24,178.40
52.539,25,178.43
52.557,25,176.83
52.576,22,177.68
52.595,21,176.72
52.614,17,178.93
52.632,13,177.24
52.652,12,178.42
52.670,8,178.42
52.687,8,178.11
52.705,6,176.82
52.723,5,180.12
52.741,6,177.99
52.758,5,177.26
52.775,4,177.65
52.794,4,179.69
52.811,4,178.08
52.829,3,178.94
52.847,4,180.08
52.865,3,177.58
52.882,3,178.08
52.899,3,178.50
52.918,4,178.42
52.935,3,177.57
52.953,4,176.82
52.970,3,178.09
52.988,3,177.55
53.006,2,180.06
53.023,2,178.08
53.041,1,177.67
53.059,1,178.42
53.076,1,178.96
53.094,2,177.68
53.112,2,178.48
53.130,1,177.99
53.147,0,178.08
53.165,1,177.26
53.183,1,177.68
53.200,1,177.97
53.218,1,178.08
53.235,2,177.68
53.254,3,263.36
53.271,2,178.82
53.288,1,177.65
53.306,2,179.37
53.324,0,177.99
53.342,0,179.66
53.359,1,178.09
53.378,2,176.83
53.395,1,178.81
53.412,0,178.08
53.430,2,178.09
53.448,2,178.11
53.466,2,177.14
53.483,1,178.52
53.500,1,177.65
53.519,1,178.42
53.536,2,179.64
53.554,1,178.13
53.571,0,179.79
53.590,1,177.97
53.607,1,260.75
53.624,1,178.52
53.642,1,182.17
53.660,1,180.88
53.678,0,178.93
53.695,2,178.96
53.713,0,177.67
53.731,1,176.70
53.748,0,177.68
53.766,2,178.09
53.784,0,181.31
53.801,1,177.96
53.819,1,177.65
53.836,0,177.23
53.855,2,177.99
53.872,1,177.58
53.890,0,178.52
53.907,1,178.93
53.925,1,179.27
53.943,1,177.26
53.960,2,177.23
53.979,1,178.50
53.996,2,177.11
54.013,1,178.48
54.031,0,177.63
54.049,2,179.66
54.067,1,179.66
54.084,1,178.50
54.102,1,177.67
54.120,1,177.24
54.137,1,176.72
54.155,1,177.28
54.172,1,178.13
54.191,1,177.12
54.208,0,177.67
54.225,1,177.63
54.244,1,178.52
54.261,1,177.97
54.279,2,178.09
54.296,1,181.83
54.315,1,178.06
54.332,0,178.81
54.349,2,178.91
54.367,1,178.94
54.385,1,179.67
54.403,1,177.97
54.420,0,178.50
54.437,1,177.24
54.456,1,179.64
54.473,1,178.82
54.491,1,179.37
54.509,0,178.48
54.526,2,177.14
54.544,1,176.85
54.561,0,178.52
54.580,0,177.68
54.597,2,177.55
54.615,0,177.68
54.632,0,176.83
54.650,1,176.82
54.668,1,177.57
54.685,1,178.52
54.703,1,178.52
54.721,0,176.77
54.738,1,178.82
54.756,0,178.91
54.773,1,177.24
54.792,1,177.53
54.809,1,178.09
54.827,1,178.50
54.845,0,177.23
54.862,0,182.56
54.880,1,179.35
54.897,0,177.24
54.916,0,178.06
54.933,0,176.72
54.950,0,178.08
54.968,0,177.65
54.986,0,177.14
55.004,0,259.91
55.021,0,179.37
55.038,0,178.08
55.057,0,178.81
55.074,0,180.63
55.092,0,177.23
55.110,1,177.24
55.128,1,244.04
55.145,0,177.65
55.162,0,182.92
55.181,0,177.24
55.198,0,177.58
55.216,0,177.24
55.233,0,177.67
55.251,0,178.38
55.269,0,177.58
55.286,0,179.35
55.304,0,178.89
55.322,0,178.38
55.340,0,178.93
55.357,0,177.24
55.375,0,177.23
55.393,0,177.12
55.410,0,177.67
55.428,0,180.18
55.446,0,177.26
55.463,0,177.97
55.481,0,177.24
55.498,0,178.50
55.517,0,177.57
55.534,1,176.72
55.552,0,177.24
55.569,0,179.76
55.587,1,179.27
55.605,0,178.82
55.622,0,178.09
