time,intensity,distance
0.001,562,0.15
0.002,560,5.66
0.007,561,5.56
0.023,560,5.56
0.039,559,5.66
0.056,557,5.66
0.073,556,5.61
0.090,557,5.56
0.106,555,5.66
0.122,552,5.71
0.140,550,5.66
0.156,547,5.66
0.173,544,5.76
0.189,545,5.76
0.206,543,5.66
0.223,544,5.71
0.239,545,5.76
0.256,545,5.76
0.273,545,5.66
0.289,545,5.66
0.306,544,5.81
0.322,545,5.81
0.339,543,5.71
0.356,542,5.76
0.372,539,6.38
0.389,540,6.38
0.406,541,6.32
0.422,541,6.38
0.439,541,6.48
0.455,542,6.48
0.473,542,6.38
0.489,543,6.43
0.505,543,6.51
0.522,544,6.53
0.539,543,6.07
0.556,539,6.12
0.572,537,6.68
0.588,538,6.68
0.606,538,6.58
0.622,539,6.63
0.638,538,6.78
0.655,533,6.89
0.672,529,6.83
0.689,527,6.48
0.705,527,6.63
0.721,526,7.09
0.739,524,6.97
0.755,523,7.02
0.772,521,7.24
0.788,519,7.29
0.805,517,6.87
0.822,511,6.99
0.838,504,7.63
0.855,498,7.80
0.872,492,7.85
0.888,488,7.96
0.905,484,8.16
0.921,479,7.85
0.939,475,8.26
0.955,472,8.30
0.971,472,8.47
0.988,469,8.45
1.005,469,8.36
1.021,467,8.40
1.038,463,8.48
1.054,463,8.25
1.072,464,8.43
1.088,463,8.16
1.104,465,8.26
1.121,463,8.26
1.138,465,8.14
1.155,465,8.42
1.171,463,8.64
1.187,459,9.15
1.205,457,8.74
1.221,450,8.89
1.238,444,9.55
1.254,439,9.64
1.271,435,9.23
1.288,435,9.71
1.304,434,9.81
1.320,436,9.76
1.338,434,9.71
1.354,434,9.69
1.371,435,9.79
1.387,435,9.74
1.404,437,9.64
1.421,438,9.64
1.437,437,9.33
1.454,437,9.33
1.471,436,9.23
1.487,438,9.25
1.504,436,9.33
1.520,437,9.35
1.538,435,9.23
1.554,435,9.25
1.570,435,9.81
1.587,434,9.74
1.604,431,9.69
1.620,430,10.25
1.638,423,10.12
1.655,416,10.20
1.674,405,10.47
1.691,395,11.08
1.709,386,10.63
1.727,379,11.08
1.744,375,11.17
1.762,374,11.75
1.779,375,11.65
1.798,376,12.04
1.815,375,12.50
1.832,375,13.06
1.850,371,11.78
1.868,369,11.88
1.886,366,12.41
1.903,363,12.16
1.921,360,11.70
1.939,359,11.68
1.956,360,11.68
1.974,360,11.78
1.991,360,11.70
2.010,360,11.68
2.027,360,12.19
2.044,360,12.04
2.063,360,12.04
2.080,358,11.73
2.098,354,11.95
2.115,348,11.99
2.134,345,12.04
2.151,344,12.05
2.168,343,11.80
2.186,343,11.70
2.204,343,11.68
2.222,344,12.09
2.239,343,12.19
2.256,343,12.09
2.275,344,12.09
2.292,342,12.21
2.310,341,11.85
2.328,338,11.85
2.345,333,12.39
2.363,332,12.16
2.380,329,12.09
2.399,328,12.56
2.416,328,12.16
2.434,329,12.31
2.451,326,12.26
2.469,323,12.75
2.487,319,12.87
2.504,317,12.65
2.522,314,12.61
2.540,315,12.60
2.557,314,12.75
2.575,314,12.67
2.593,313,12.67
2.611,315,12.61
2.628,314,13.18
2.646,314,12.67
2.664,313,13.06
2.681,314,12.65
2.699,313,13.18
2.716,313,12.65
2.735,312,12.72
2.752,309,12.82
2.769,305,13.01
2.787,302,12.97
2.805,301,13.02
2.823,299,12.61
2.840,299,13.07
2.859,298,13.12
2.876,296,13.62
2.893,295,13.79
2.911,293,13.77
2.929,291,13.82
2.947,288,13.97
2.964,284,14.64
2.981,281,13.87
3.000,279,14.03
3.017,274,14.18
3.035,271,14.33
3.052,267,14.59
3.070,261,15.20
3.088,258,15.86
3.105,254,15.61
3.123,250,15.76
3.141,247,15.86
3.159,245,16.06
3.176,245,16.01
3.194,243,16.06
3.212,243,16.57
3.229,241,16.68
3.247,239,16.32
3.265,237,16.42
3.282,237,16.47
3.300,234,16.98
3.317,234,17.05
3.336,231,16.73
3.353,230,16.78
3.371,229,16.88
3.388,228,17.44
3.406,226,16.73
3.424,223,16.83
3.441,220,17.03
3.460,217,17.19
3.477,214,17.34
3.494,213,17.49
3.512,210,18.05
3.530,209,18.16
3.548,207,18.24
3.565,206,17.90
3.582,204,18.00
3.601,204,18.09
3.618,202,18.11
3.636,202,18.33
3.653,200,18.45
3.672,198,19.02
3.689,196,19.63
3.706,193,19.77
3.725,193,20.33
3.742,191,20.08
3.760,190,19.84
3.777,187,19.60
3.795,183,19.28
3.813,182,19.43
3.830,181,19.53
3.848,181,19.63
3.866,178,19.69
3.884,178,19.69
3.901,179,19.89
3.918,177,20.04
3.937,176,20.13
3.954,174,20.14
3.972,173,20.35
3.990,172,20.48
4.007,170,20.59
4.025,169,20.69
4.042,168,20.79
4.061,167,20.89
4.078,164,20.89
4.096,165,21.45
4.113,164,21.15
4.131,164,21.22
4.149,163,21.51
4.166,163,21.27
4.184,162,21.25
4.202,163,21.27
4.219,163,21.17
4.237,162,21.27
4.254,163,21.27
4.273,163,21.17
4.290,162,21.27
4.307,161,21.68
4.326,162,21.73
4.343,161,21.76
4.361,159,21.56
4.378,159,21.71
4.397,157,21.81
4.414,155,21.91
4.431,154,22.17
4.449,151,22.32
4.467,150,22.83
4.485,149,23.02
4.502,146,23.32
4.519,144,23.55
4.538,143,24.11
4.555,140,24.46
4.573,138,24.70
4.591,137,25.28
4.609,134,25.57
4.626,132,25.94
4.643,130,25.74
4.662,128,25.43
4.679,127,25.23
4.697,124,25.13
4.714,123,25.64
4.732,121,25.28
4.750,121,25.36
4.767,121,25.59
4.785,120,25.64
4.803,120,25.59
4.820,119,25.76
4.838,118,25.79
4.856,118,25.74
4.874,119,26.01
4.891,119,25.84
4.909,119,26.16
4.927,118,26.06
4.944,119,26.13
4.962,119,26.32
4.979,117,26.42
4.998,117,26.47
5.015,116,26.67
5.032,114,26.88
5.050,113,26.93
5.068,113,27.03
5.086,113,27.15
5.103,113,27.29
5.122,113,27.20
5.139,112,27.18
5.156,114,27.29
5.174,113,27.29
5.192,112,27.18
5.210,112,27.18
5.227,112,27.25
5.244,112,27.29
5.263,112,27.13
5.280,113,27.15
5.298,112,27.25
5.315,112,27.20
5.334,111,27.63
5.351,111,27.64
5.368,112,28.20
5.386,112,27.69
5.404,111,27.64
5.422,112,27.34
5.439,111,27.37
5.457,112,27.25
5.475,112,27.29
5.492,111,27.37
5.510,111,27.39
5.528,112,27.23
5.545,111,27.23
5.563,111,27.74
5.580,112,27.68
5.599,110,27.68
5.616,111,28.10
5.634,111,28.19
5.651,111,28.10
5.669,110,28.10
5.687,110,28.20
5.704,111,28.20
5.723,112,28.10
5.740,112,28.05
5.757,112,28.19
5.775,112,28.19
5.793,111,27.64
5.811,110,27.23
5.828,112,27.35
5.846,111,27.64
5.864,111,27.64
5.881,110,27.64
5.899,111,28.19
5.916,111,28.51
5.935,111,28.51
5.952,110,28.15
5.969,110,27.74
5.988,112,27.64
6.005,110,27.23
6.023,110,27.32
6.040,111,27.32
6.059,111,27.27
6.076,109,27.27
6.093,112,27.34
6.111,111,27.34
6.129,110,27.23
6.147,110,27.29
6.164,110,27.39
6.181,111,27.29
6.200,110,27.29
6.217,111,27.69
6.235,111,27.39
6.253,112,27.69
6.270,112,27.27
6.288,111,27.80
6.305,111,27.37
6.324,112,27.29
6.341,110,27.27
6.359,111,27.39
6.376,112,27.39
6.394,112,27.29
6.412,111,27.32
6.429,112,27.47
6.447,110,27.44
6.465,109,27.47
6.482,109,27.17
6.500,109,27.73
6.517,111,27.69
6.536,109,27.69
6.553,109,27.85
6.571,110,27.83
6.589,108,27.74
6.606,110,27.73
6.624,109,27.85
6.641,109,27.83
6.660,110,27.78
6.677,109,28.14
6.694,110,27.90
6.712,109,27.78
6.730,111,27.80
6.748,111,27.78
6.765,109,27.88
6.782,109,27.78
6.801,111,28.14
6.818,110,28.25
6.836,111,28.24
6.854,110,28.14
6.872,110,28.14
6.889,110,28.25
6.906,109,28.27
6.925,109,28.19
6.942,110,28.15
6.960,110,28.25
6.977,111,28.14
6.995,110,28.14
7.013,110,28.15
7.030,110,27.88
7.048,110,28.14
7.066,109,28.15
7.084,110,28.25
7.101,110,28.25
7.119,110,28.15
7.137,110,28.19
7.154,110,28.29
7.172,110,28.29
7.190,110,28.19
7.207,110,28.15
7.225,110,28.25
7.242,110,28.15
7.261,109,28.19
7.278,111,28.19
7.296,110,28.25
7.313,109,28.19
7.331,110,27.78
7.349,109,27.78
7.366,110,27.88
7.385,109,28.15
7.402,110,28.19
7.419,110,28.25
7.437,110,28.29
7.455,111,28.14
7.473,110,28.19
7.490,109,28.29
7.507,111,28.14
7.526,111,28.59
7.543,110,28.59
7.561,111,28.29
7.578,109,28.19
7.597,110,28.15
7.614,111,28.56
7.631,109,28.29
7.649,109,28.19
7.667,108,28.61
7.685,111,28.71
7.702,109,28.31
7.720,110,28.20
7.738,109,28.20
7.755,109,28.29
7.773,110,27.95
7.791,109,27.93
7.809,109,28.46
7.826,107,28.75
7.843,105,28.73
7.862,106,29.31
7.879,105,29.00
7.897,104,29.21
7.914,102,29.21
7.932,104,29.77
7.950,102,29.61
7.967,101,29.68
7.986,99,29.92
8.002,101,30.12
8.019,99,30.50
8.036,97,30.58
8.053,96,30.79
8.070,95,30.99
8.086,95,31.30
8.102,92,31.45
8.120,92,32.01
8.136,93,32.22
8.153,91,32.52
8.169,91,32.16
8.186,89,32.67
8.203,90,32.78
8.219,90,32.95
8.236,90,32.95
8.253,89,32.57
8.269,89,33.00
8.286,88,33.17
8.302,88,33.05
8.320,89,33.05
8.336,89,33.03
8.352,89,33.13
8.369,90,33.05
8.386,89,32.67
8.402,89,33.10
8.419,88,33.18
8.435,89,33.18
8.453,89,33.29
8.469,88,33.01
8.485,88,33.54
8.502,87,33.18
8.519,87,32.84
8.536,87,32.90
8.552,87,33.03
8.568,86,33.41
8.586,87,33.54
8.602,86,33.24
8.619,87,33.69
8.635,85,33.75
8.652,86,33.46
8.669,86,33.49
8.685,87,33.59
8.701,85,33.64
8.719,86,33.69
8.735,84,33.76
8.752,85,33.86
8.768,85,34.41
8.785,85,34.09
8.802,85,34.63
8.818,82,34.82
8.835,82,34.51
8.852,83,34.61
8.868,83,35.21
8.885,83,34.92
8.901,82,35.07
8.919,83,35.22
8.935,81,35.33
8.951,82,35.82
8.968,80,35.58
8.985,80,35.68
9.001,78,35.77
9.018,79,36.30
9.034,79,36.38
9.052,78,36.06
9.068,79,36.50
9.084,78,36.19
9.101,77,36.19
9.118,79,36.23
9.135,77,36.19
9.151,78,36.19
9.167,77,36.19
9.185,78,36.18
9.201,76,35.79
9.218,79,36.16
9.234,77,35.79
9.251,77,35.77
9.268,78,36.18
9.284,77,36.19
9.300,77,36.19
9.318,77,36.19
9.334,78,36.18
9.351,77,35.79
9.367,77,35.77
9.384,78,35.77
9.401,78,36.13
9.417,76,35.73
9.434,77,36.11
9.451,78,36.13
9.467,77,36.13
9.484,77,36.13
9.500,77,36.11
9.518,77,35.72
9.534,77,35.73
9.550,78,35.73
9.567,79,35.73
9.584,77,35.73
9.601,78,35.72
9.617,76,35.73
9.633,78,35.73
9.651,77,35.73
9.667,78,35.73
9.683,78,36.13
9.700,77,35.77
9.717,78,35.79
9.734,76,35.79
9.750,78,35.79
9.766,77,36.18
9.784,78,36.23
9.800,76,36.24
9.817,78,36.24
9.833,77,36.24
9.850,77,36.24
9.867,78,36.30
9.883,77,36.35
9.900,76,36.43
9.917,76,36.52
9.933,76,36.65
9.950,76,36.69
9.966,75,36.74
9.984,75,36.74
10.000,76,36.81
10.017,74,36.89
10.035,75,37.01
10.053,75,37.06
10.071,74,37.42
10.088,74,37.55
10.105,73,37.20
10.124,74,37.21
10.141,74,37.45
10.159,74,37.16
10.176,73,37.18
10.194,73,37.20
10.212,73,37.60
10.229,73,37.60
10.248,73,37.30
10.265,72,37.72
10.283,73,37.49
10.300,73,37.54
10.318,72,37.57
10.336,72,37.47
10.353,73,37.57
10.371,72,37.57
10.389,71,37.59
10.406,72,37.89
10.424,71,38.44
10.441,71,38.44
10.460,72,38.49
10.477,71,38.47
10.494,71,38.68
10.513,71,38.79
10.530,71,38.44
10.548,70,38.64
10.565,70,38.32
10.584,70,38.34
10.601,70,38.23
10.618,70,38.32
10.636,71,38.74
10.654,70,38.79
10.672,69,38.69
10.689,70,38.79
10.706,70,38.83
10.725,70,38.90
10.742,69,39.22
10.760,70,38.95
10.777,70,39.36
10.796,70,38.90
10.813,69,39.00
10.830,70,39.00
10.849,68,38.59
10.866,70,38.85
10.884,70,38.57
10.901,69,38.59
10.919,69,38.59
10.937,69,38.49
10.954,69,38.57
10.972,70,39.00
10.990,69,38.62
11.008,69,38.52
11.025,69,38.61
11.042,69,39.03
11.061,69,38.91
11.078,68,38.59
11.096,69,38.59
11.114,69,39.02
11.131,69,38.49
11.149,69,38.57
11.166,70,38.57
11.185,70,38.59
11.202,70,38.49
11.219,69,38.57
11.237,69,38.57
11.255,71,38.59
11.273,70,38.49
11.290,69,38.59
11.308,69,38.57
11.326,71,38.93
11.343,69,38.62
11.361,70,38.68
11.379,69,38.74
11.397,69,38.68
11.414,68,38.78
11.431,69,38.78
11.450,69,38.79
11.467,68,38.68
11.485,68,38.79
11.502,69,38.79
11.521,68,38.79
11.538,68,38.69
11.555,69,39.24
11.573,69,38.90
11.591,68,39.29
11.609,68,39.39
11.626,67,39.64
11.644,67,39.85
11.662,66,39.95
11.679,66,39.85
11.697,64,40.46
11.715,65,40.12
11.732,64,40.05
11.750,65,40.15
11.767,65,40.15
11.786,65,40.14
11.803,64,40.05
11.821,63,40.17
11.838,64,40.15
11.856,65,40.05
11.874,65,40.05
11.891,64,40.15
11.909,64,40.17
11.927,65,40.09
11.944,64,40.65
11.962,63,40.72
11.980,64,40.87
11.998,64,40.97
12.015,63,41.17
12.033,62,40.92
12.051,62,40.95
12.068,60,41.02
12.086,60,41.12
12.103,60,41.12
12.122,62,40.61
12.139,61,41.02
12.156,62,41.11
12.174,61,41.12
12.192,61,41.02
12.210,62,41.12
12.227,60,41.14
12.246,61,41.12
12.263,61,41.04
12.280,62,41.14
12.298,60,41.14
12.316,62,41.02
12.334,61,41.02
12.351,60,41.14
12.368,60,41.12
12.387,63,41.41
12.404,60,41.04
12.422,60,41.11
12.439,61,41.11
12.457,62,41.04
12.475,61,41.12
12.492,62,41.12
12.511,61,41.12
12.528,61,41.02
12.546,61,41.11
12.563,60,41.12
12.581,61,40.72
12.599,61,40.61
12.616,61,41.12
12.634,62,40.72
12.652,61,41.02
12.669,62,41.02
12.687,62,41.11
12.704,61,41.11
12.723,61,41.02
12.740,62,41.00
12.758,61,41.12
12.776,62,41.12
12.793,61,41.00
12.811,62,41.12
12.828,61,41.12
12.847,60,41.12
12.864,63,41.02
12.881,61,41.11
12.899,61,41.12
12.917,61,40.99
12.935,61,41.00
12.952,63,40.72
12.969,62,40.70
12.988,62,41.00
13.005,62,40.61
13.023,61,40.70
13.040,61,41.07
13.059,60,40.97
13.076,60,41.07
13.093,62,41.07
13.112,60,41.07
13.129,61,40.95
13.147,62,41.06
13.164,62,40.68
13.182,60,40.66
13.200,62,40.58
13.217,61,40.66
13.235,62,40.66
13.253,62,40.56
13.271,60,40.56
13.288,61,40.66
13.305,61,40.66
13.324,60,40.95
13.341,61,40.66
13.359,60,41.06
13.377,62,41.07
13.394,62,40.95
13.412,61,40.66
13.429,61,40.66
13.448,62,41.02
13.465,61,40.56
13.483,61,40.66
13.500,61,40.66
13.518,62,40.58
13.536,61,40.58
13.553,61,41.07
13.571,61,41.09
13.589,61,40.99
13.606,61,41.09
13.624,60,41.12
13.642,61,41.12
13.660,60,40.97
13.677,61,41.07
13.694,61,41.11
13.713,61,41.07
13.730,60,41.00
13.748,62,41.53
13.765,60,41.17
13.784,61,41.07
13.801,60,41.09
13.818,61,41.17
13.836,60,41.16
13.854,61,41.04
13.872,59,41.45
13.889,61,41.19
13.907,61,41.23
13.925,61,41.16
13.942,61,41.68
13.960,60,41.74
13.978,61,41.36
13.996,59,41.23
14.013,60,41.33
14.030,61,40.90
14.049,62,41.17
14.066,61,41.16
14.084,61,41.28
14.101,61,41.28
14.119,61,40.82
14.137,61,41.23
14.154,60,41.33
14.172,61,41.34
14.190,59,41.23
14.208,61,41.36
14.225,60,41.34
14.243,60,41.40
14.261,60,41.33
14.278,61,41.48
14.296,59,41.53
14.314,60,41.96
14.331,61,41.65
14.349,60,42.31
14.366,59,42.11
14.385,59,42.57
14.402,57,42.36
14.419,56,42.60
14.437,58,43.03
14.455,58,42.62
14.473,58,43.10
14.490,59,43.08
14.509,57,42.96
14.526,57,43.01
14.543,57,43.08
14.561,58,43.11
14.579,57,42.65
14.597,58,42.72
14.614,57,43.32
14.631,56,43.11
14.650,57,43.25
14.667,57,43.69
14.685,55,43.57
14.702,55,43.54
14.721,56,43.98
14.738,55,44.06
14.755,56,43.69
14.774,55,43.64
14.791,54,43.66
14.809,54,43.79
14.826,54,43.79
14.844,54,44.12
14.862,54,44.18
14.879,54,44.73
14.897,54,44.32
14.915,55,44.25
14.932,54,44.32
14.950,54,44.52
14.967,54,44.97
14.986,53,45.12
15.003,52,44.78
15.021,53,44.56
15.039,51,44.52
15.056,51,44.56
15.074,54,45.05
15.091,52,44.71
15.110,51,44.63
15.127,52,44.66
15.144,51,45.17
15.162,51,45.10
15.180,52,45.59
15.198,53,45.17
15.215,51,45.32
15.233,51,45.24
15.251,51,44.86
15.268,51,44.86
15.286,52,45.36
15.303,50,45.27
15.322,51,45.27
15.339,51,45.39
15.356,52,45.83
15.375,52,45.34
15.392,50,44.98
15.410,51,45.14
15.427,50,45.49
15.446,49,45.15
15.463,50,45.24
15.480,50,45.42
15.498,49,45.34
15.516,49,45.83
15.534,50,45.44
15.551,50,45.93
15.568,49,45.48
15.587,51,45.48
15.604,49,45.58
15.622,49,45.65
15.640,50,45.63
15.657,48,45.73
15.675,50,46.00
15.692,49,46.04
15.711,48,46.26
15.728,49,46.41
15.746,49,47.07
15.763,48,47.12
15.781,47,47.26
15.799,48,47.36
15.816,46,47.57
15.834,46,47.16
15.852,48,47.67
15.869,48,47.82
15.887,47,47.45
15.905,46,47.58
15.923,46,48.13
15.940,45,48.40
15.958,46,48.04
15.976,44,48.62
15.993,45,48.69
16.011,46,48.89
16.028,46,48.89
16.047,45,48.94
16.064,44,48.99
16.081,45,49.50
16.099,44,49.62
16.117,43,49.30
16.135,42,49.47
16.152,42,50.10
16.171,42,51.12
16.188,42,51.24
16.205,42,51.70
16.223,43,52.55
16.241,43,53.38
16.259,42,112.23
16.277,42,131.90
16.295,42,131.77
16.315,42,54.23
16.332,42,52.16
16.350,42,52.19
16.367,41,51.80
16.386,42,51.80
16.403,42,51.85
16.420,42,51.05
16.439,42,51.49
16.456,42,51.48
16.474,42,51.14
16.491,42,50.76
16.509,42,50.49
16.527,40,50.64
16.544,41,51.29
16.562,41,52.00
16.580,41,53.47
16.598,40,53.64
16.615,41,54.04
16.632,38,55.15
16.651,39,54.94
16.668,38,55.61
16.686,37,55.37
16.704,38,56.39
16.721,38,55.17
16.739,38,56.64
16.756,37,55.91
16.775,38,139.57
16.793,37,56.36
16.811,37,56.07
16.828,38,56.47
16.846,37,55.23
16.864,37,55.13
16.881,37,55.62
16.899,37,55.25
16.917,38,55.64
16.934,36,55.23
16.952,38,55.23
16.970,36,55.23
16.988,37,56.39
17.005,37,55.25
17.022,38,55.73
17.041,37,55.42
17.058,37,55.93
17.076,37,55.81
17.093,35,56.51
17.112,37,57.94
17.129,36,112.32
17.147,35,115.72
17.166,36,144.82
17.185,36,142.53
17.204,36,143.67
17.222,35,144.69
17.242,34,117.96
17.260,35,129.85
17.278,36,136.29
17.297,37,135.51
17.316,35,56.87
17.334,35,57.80
17.351,34,56.53
17.370,36,56.10
17.387,36,55.98
17.404,35,56.49
17.422,35,56.90
17.440,35,56.05
17.458,35,56.36
17.475,36,56.08
17.492,34,56.53
17.511,34,57.68
17.528,35,56.87
17.546,35,56.97
17.563,35,57.80
17.582,35,56.87
17.599,36,57.31
17.616,35,57.02
17.635,35,56.25
17.652,34,57.49
17.670,33,57.77
17.687,35,58.34
17.705,34,57.78
17.723,34,58.67
17.740,34,58.96
17.758,33,59.57
17.776,34,60.74
17.794,34,61.18
17.811,34,146.54
17.829,34,130.92
17.849,34,61.54
17.866,33,59.23
17.884,34,59.64
17.902,35,59.53
17.920,34,59.52
17.937,34,58.79
17.954,34,58.40
17.973,32,59.11
17.990,34,58.29
18.008,35,58.38
18.025,33,58.80
18.043,35,58.31
18.061,34,57.90
18.078,33,57.65
18.096,33,58.12
18.114,34,58.11
18.131,34,58.19
18.149,34,58.38
18.167,32,58.46
18.185,34,59.23
18.202,32,59.33
18.220,33,59.35
18.238,33,58.79
18.255,34,58.38
18.273,33,58.50
18.290,33,58.12
18.309,33,58.06
18.326,34,58.14
18.343,33,58.82
18.361,33,58.57
18.379,33,58.63
18.397,33,59.67
18.414,33,59.99
18.432,32,59.74
18.450,31,60.23
18.467,33,60.04
18.485,31,60.62
18.503,32,60.64
18.521,32,61.00
18.538,32,60.86
18.555,32,60.50
18.574,32,60.52
18.591,30,60.93
18.609,33,61.12
18.626,32,61.27
18.644,31,61.32
18.662,31,61.93
18.679,31,62.58
18.697,31,63.43
18.715,30,62.70
18.733,30,64.97
18.750,31,127.42
18.769,30,63.24
18.787,30,64.07
18.804,30,62.53
18.822,31,62.17
18.840,32,62.92
18.857,31,62.63
18.875,30,62.39
18.892,30,62.39
18.911,31,62.12
18.928,30,63.46
18.946,30,62.37
18.963,30,62.70
18.981,31,63.14
18.999,29,62.42
19.016,29,62.46
19.035,31,62.34
19.052,30,62.36
19.069,30,62.44
19.087,29,62.71
19.105,31,62.34
19.123,31,62.32
19.140,29,62.83
19.158,31,62.34
19.176,30,63.24
19.193,30,62.90
19.211,32,62.76
19.228,30,63.17
19.247,30,63.78
19.264,30,63.61
19.281,29,64.43
19.300,29,160.53
19.318,31,160.41
19.337,30,63.70
19.354,29,63.16
19.373,30,63.16
19.390,28,63.17
19.407,31,64.55
19.425,30,123.27
19.444,29,124.10
19.463,29,124.00
19.481,30,126.21
19.501,30,129.01
19.519,30,160.46
19.537,30,161.42
19.556,30,159.75
19.575,31,141.75
19.594,30,119.24
19.612,29,160.99
19.632,29,121.31
19.650,30,121.70
19.668,30,122.13
19.687,30,120.85
19.706,30,120.04
19.725,28,120.90
19.743,30,124.64
19.762,29,121.79
19.781,30,160.17
19.800,29,159.87
19.818,30,160.29
19.837,30,160.29
19.856,29,162.32
19.874,30,160.74
19.893,30,141.25
19.912,29,158.85
19.931,30,67.23
19.948,29,66.38
19.966,30,65.25
19.984,30,64.55
20.001,30,65.11
20.019,31,64.65
20.037,29,65.45
20.055,30,64.26
20.072,29,65.55
20.089,29,66.32
20.108,30,64.69
20.125,29,65.50
20.143,29,65.94
20.160,29,70.11
20.178,29,68.92
20.196,30,67.01
20.213,29,64.96
20.232,30,64.62
20.249,29,64.65
20.267,29,64.40
20.284,29,65.48
20.302,28,64.69
20.320,29,64.70
20.337,30,65.21
20.355,28,65.52
20.373,29,65.96
20.390,29,67.18
20.408,30,67.71
20.425,28,67.37
20.444,29,66.64
20.461,29,66.01
20.478,29,64.91
20.497,29,64.63
20.514,29,65.14
20.532,28,66.16
20.549,29,66.11
20.568,29,65.30
20.585,28,65.74
20.602,29,66.67
20.620,28,65.31
20.638,29,66.16
20.656,29,66.16
20.673,28,65.43
20.690,29,65.76
20.709,28,65.76
20.726,29,66.25
20.744,30,65.91
20.761,29,65.65
20.780,28,65.76
20.797,28,66.83
20.814,29,69.60
20.833,29,67.54
20.850,28,67.13
20.868,29,67.15
20.885,29,69.62
20.903,28,69.62
20.921,29,69.22
20.938,28,68.02
20.956,29,70.50
20.974,28,68.83
20.992,28,68.85
21.009,28,69.70
21.026,27,145.21
21.046,28,146.81
21.064,29,67.05
21.082,28,66.18
21.100,28,66.32
21.117,28,67.75
21.135,28,67.52
21.152,28,67.29
21.171,29,67.90
21.188,27,68.85
21.206,27,68.51
21.223,27,68.95
21.241,27,68.10
21.259,26,68.51
21.276,26,68.10
21.294,27,69.38
21.312,27,68.15
21.329,27,67.83
21.347,26,67.80
21.365,26,67.88
21.383,27,68.41
21.400,27,68.88
21.417,27,68.58
21.436,28,68.26
21.453,26,67.86
21.471,27,67.85
21.488,27,67.85
21.507,27,68.66
21.524,26,68.22
21.541,27,67.83
21.559,27,67.85
21.577,26,67.85
21.595,28,68.36
21.612,27,67.85
21.630,26,69.09
21.648,26,68.68
21.665,26,69.51
21.683,26,67.85
21.701,26,67.85
21.719,27,69.51
21.736,27,67.86
21.753,27,67.86
21.772,26,68.24
21.789,27,67.85
21.807,27,68.26
21.824,25,69.09
21.842,26,69.50
21.860,27,68.68
21.877,27,69.11
21.896,27,69.11
21.913,27,68.71
21.931,26,69.16
21.948,25,128.72
21.967,26,69.60
21.985,26,146.80
22.003,27,129.12
22.022,27,125.82
22.041,25,69.16
22.059,26,68.31
22.076,27,69.17
22.094,26,67.93
22.112,27,68.41
22.129,28,68.51
22.147,26,69.02
22.165,26,67.97
22.182,26,68.92
22.200,25,69.89
22.217,27,69.97
22.236,24,69.63
22.253,26,145.54
22.272,26,144.77
22.290,26,126.96
22.309,25,120.11
22.328,27,117.74
22.346,25,116.38
22.366,25,70.16
22.383,26,69.39
22.401,25,69.53
22.418,25,69.70
22.436,27,70.33
22.454,26,117.73
22.472,25,124.56
22.491,25,74.17
22.509,25,72.23
22.526,25,73.61
22.544,25,71.66
22.562,25,71.71
22.580,25,70.96
22.597,25,73.05
22.615,24,71.38
22.633,25,70.99
22.650,25,70.87
22.668,24,72.23
22.685,25,73.05
22.704,25,73.47
22.721,25,72.96
22.738,25,73.05
22.756,25,71.40
22.774,25,71.43
22.792,26,73.49
22.809,25,72.22
22.828,24,71.83
22.845,25,71.84
22.862,25,73.49
22.880,25,73.51
22.898,25,71.84
22.916,24,71.74
22.933,24,71.84
22.950,24,73.92
22.969,26,71.86
22.986,24,73.83
23.004,24,71.86
23.021,26,73.54
23.040,25,72.32
23.057,23,71.89
23.074,25,72.88
23.093,24,72.56
23.110,24,71.91
23.128,24,73.68
23.145,24,72.18
23.163,24,74.39
23.181,24,72.39
23.198,24,72.59
23.216,25,72.27
23.234,24,74.05
23.251,24,72.39
23.269,25,73.02
23.286,24,72.69
23.305,24,74.75
23.322,25,72.78
23.340,24,73.80
23.357,24,72.62
23.375,25,72.98
23.393,24,130.93
23.411,25,139.16
23.431,24,179.96
23.449,24,124.12
23.468,24,123.37
23.486,25,123.73
23.505,24,123.25
23.524,24,121.55
23.542,24,182.17
23.562,24,181.66
23.580,24,139.93
23.599,25,139.08
23.617,23,124.49
23.636,24,124.19
23.655,24,125.41
23.673,24,122.40
23.693,23,127.01
23.711,24,126.14
23.730,24,129.76
23.748,25,126.14
23.768,23,125.36
23.786,24,182.04
23.804,23,126.09
23.823,23,125.77
23.842,25,183.60
23.861,23,182.94
23.879,23,127.42
23.899,24,126.21
23.917,24,124.87
23.936,24,125.41
23.954,23,182.07
23.973,23,122.98
23.992,25,184.11
24.010,24,118.46
24.030,23,119.27
24.048,24,115.92
24.067,24,120.07
24.085,24,115.87
24.104,23,124.97
24.123,23,122.49
24.141,25,120.39
24.161,24,126.16
24.179,25,75.60
24.197,24,75.70
24.214,23,74.04
24.232,24,75.60
24.250,24,75.24
24.267,24,75.48
24.285,24,74.02
24.303,24,74.95
24.321,25,130.51
24.339,25,180.54
24.358,23,78.25
24.376,23,78.08
24.393,23,79.02
24.411,23,77.59
24.429,24,78.69
24.446,23,78.76
24.464,23,121.01
24.482,22,121.86
24.502,22,122.71
24.520,23,125.53
24.539,22,123.15
24.558,23,147.66
24.577,23,145.55
24.595,22,146.95
24.613,22,188.46
24.633,22,79.44
24.650,22,119.70
24.669,22,116.45
24.687,23,118.03
24.707,22,117.62
24.725,22,117.32
24.743,21,116.77
24.763,22,115.96
24.781,21,116.77
24.800,22,116.47
24.818,22,117.62
24.838,21,117.23
24.856,22,116.54
24.875,22,76.33
24.893,22,118.25
24.911,21,77.50
24.929,24,76.81
24.946,22,77.67
24.965,21,77.62
24.982,22,77.66
24.999,21,78.49
25.017,23,79.22
25.035,21,78.47
25.053,20,78.45
25.070,21,77.50
25.088,22,77.38
25.106,22,77.38
25.123,23,77.50
25.141,22,79.85
25.159,22,77.01
25.177,20,77.01
25.194,22,79.05
25.211,22,77.93
25.230,22,77.88
25.247,22,77.52
25.265,22,118.39
25.283,22,119.61
25.303,21,118.75
25.321,21,118.80
25.339,23,120.72
25.359,20,120.65
25.377,20,121.40
25.396,23,78.88
25.413,20,80.16
25.432,21,79.15
25.449,20,79.88
25.466,21,81.57
25.484,21,79.75
25.502,20,82.60
25.520,21,120.60
25.538,20,120.39
25.558,21,81.50
25.575,20,83.38
25.592,19,81.99
25.610,20,81.67
25.628,20,83.49
25.646,20,83.20
25.663,21,84.17
25.680,19,83.81
25.699,19,82.60
25.716,20,82.23
25.734,20,82.25
25.751,21,82.25
25.769,20,83.47
25.787,20,81.92
25.804,20,83.47
25.823,19,82.64
25.840,20,83.90
25.858,19,82.37
25.875,20,83.90
25.893,20,83.90
25.911,21,82.23
25.928,20,82.33
25.946,21,82.23
25.964,20,82.23
25.981,19,82.21
25.999,20,83.88
26.016,20,82.21
26.035,19,82.64
26.052,21,84.78
26.070,20,85.77
26.088,20,84.27
26.105,20,84.44
26.123,19,83.96
26.140,19,84.05
26.159,20,83.86
26.176,21,86.07
26.193,19,84.52
26.211,20,83.83
26.229,19,83.44
26.247,19,83.03
26.264,19,83.03
26.281,20,82.99
26.300,20,82.60
26.317,18,83.01
26.335,20,85.07
26.352,18,82.62
26.371,20,85.09
26.388,20,82.74
26.405,19,85.09
26.424,20,85.09
26.441,20,82.59
26.459,19,83.93
26.476,20,82.99
26.494,19,85.05
26.512,20,84.66
26.529,18,85.07
26.547,19,84.24
26.565,20,84.64
26.583,19,85.03
26.600,19,83.35
26.617,19,82.94
26.636,19,82.94
26.653,20,84.71
26.671,19,84.61
26.689,19,84.61
26.706,19,83.35
26.724,19,84.61
26.741,19,83.37
26.760,20,82.96
26.777,19,84.20
26.795,19,83.35
26.812,19,83.37
26.830,20,83.78
26.848,19,84.61
26.865,19,82.94
26.883,19,83.33
26.901,19,84.59
26.918,19,85.10
26.936,18,85.02
26.954,18,85.03
26.972,18,83.38
26.989,19,83.47
27.006,19,84.20
27.025,20,83.78
27.042,19,84.18
27.060,20,84.20
27.077,20,83.35
27.096,19,84.17
27.113,19,84.17
27.130,19,84.17
27.148,20,84.59
27.166,19,83.35
27.184,20,84.17
27.201,19,84.58
27.219,20,84.58
27.237,19,83.32
27.254,19,84.29
27.272,19,82.93
27.290,19,82.94
27.308,18,84.59
27.325,20,83.42
27.342,20,84.17
27.361,20,83.76
27.378,19,84.17
27.396,20,84.18
27.413,18,82.54
27.431,19,82.93
27.449,19,83.33
27.466,18,84.61
27.484,19,82.94
27.502,20,83.37
27.520,19,83.06
27.537,19,84.20
27.555,19,85.02
27.573,19,84.59
27.590,19,83.03
27.608,20,84.17
27.626,20,82.91
27.643,20,84.58
27.661,18,83.03
27.678,19,84.17
27.697,18,83.33
27.714,19,84.17
27.731,20,82.91
27.749,18,83.30
27.767,19,83.74
27.785,19,83.01
27.802,19,82.89
27.821,20,83.74
27.838,20,83.73
27.855,19,83.03
27.873,19,82.94
27.891,19,83.35
27.909,19,83.33
27.926,18,83.03
27.943,20,83.32
27.962,19,82.93
27.979,20,83.32
27.997,19,83.74
28.014,20,84.58
28.033,19,84.15
28.050,18,83.84
28.067,20,84.18
28.086,19,83.33
28.103,20,85.43
28.121,20,85.02
28.138,20,84.61
28.156,20,85.02
28.174,20,128.42
28.192,19,135.08
28.211,20,130.51
28.230,19,85.66
28.248,18,85.22
28.265,19,84.42
28.282,19,86.05
28.301,20,84.41
28.318,19,86.50
28.336,19,84.44
28.354,20,85.27
28.371,20,85.68
28.389,20,85.29
28.406,20,85.70
28.425,20,86.53
28.442,19,85.68
28.460,20,85.29
28.477,20,85.70
28.495,19,85.66
28.513,18,87.24
28.530,19,85.66
28.548,18,86.51
28.566,18,85.66
28.583,20,86.51
28.601,19,86.11
28.619,18,86.94
28.637,20,86.94
28.654,18,87.35
28.672,20,87.35
28.690,18,86.92
28.707,19,85.68
28.725,19,87.74
28.742,19,85.26
28.761,19,85.68
28.778,19,87.23
28.795,18,86.09
28.813,20,86.51
28.831,18,86.51
28.849,19,85.78
28.866,20,86.51
28.884,18,86.50
28.902,18,87.35
28.919,19,86.07
28.937,19,85.65
28.955,19,85.26
28.973,18,84.85
28.990,19,85.24
29.007,19,84.83
29.026,18,85.22
29.043,20,86.07
29.061,19,85.26
29.078,19,85.26
29.096,20,85.66
29.114,18,86.82
29.131,18,85.27
29.150,18,85.68
29.167,18,86.51
29.185,19,87.35
29.202,20,87.35
29.220,19,85.29
29.238,19,85.27
29.255,19,85.66
29.273,19,87.35
29.291,18,86.07
29.308,19,85.68
29.326,20,85.68
29.343,18,85.27
29.362,18,87.33
29.379,19,86.82
29.396,18,86.92
29.414,20,85.27
29.432,19,86.92
29.450,19,86.92
29.467,20,85.27
29.486,18,85.27
29.503,20,86.50
29.520,20,86.50
29.538,20,84.85
29.556,19,84.83
29.574,18,86.50
29.591,19,84.01
29.608,19,84.42
29.627,19,86.90
29.644,19,82.79
29.662,19,86.50
29.679,19,84.86
29.698,19,87.35
29.715,19,86.94
29.732,18,87.35
29.751,19,86.95
29.768,19,86.53
29.786,19,86.94
29.803,19,87.81
29.821,20,86.94
29.839,19,87.79
29.856,18,87.38
29.874,20,138.91
29.893,19,138.55
29.912,19,135.66
29.930,20,136.58
29.949,18,137.04
29.968,18,136.26
29.986,19,136.70
30.005,18,86.34
30.023,19,86.04
30.041,18,85.80
30.058,19,87.21
30.075,19,86.56
30.094,18,88.01
30.111,19,86.43
30.129,18,88.33
30.146,19,87.58
30.164,20,87.96
30.182,18,87.13
30.199,18,86.70
30.218,19,87.13
30.235,19,87.14
30.253,20,86.29
30.270,19,86.31
30.288,19,86.70
30.306,19,87.16
30.323,17,87.60
30.341,18,88.43
30.359,19,86.48
30.376,18,88.30
30.394,19,89.17
30.411,19,87.89
30.430,20,89.96
30.447,18,91.17
30.465,17,91.95
30.483,20,171.63
30.501,18,211.26
30.520,17,209.59
30.538,18,232.70
30.558,17,172.92
30.576,17,209.42
30.595,17,211.23
30.614,19,147.51
30.632,18,147.12
30.651,19,144.69
30.669,18,144.67
30.689,17,146.30
30.707,18,146.73
30.726,19,145.54
30.744,17,146.25
30.764,18,146.68
30.782,19,92.09
30.799,19,90.46
30.818,17,90.20
30.835,17,91.55
30.853,17,91.05
30.870,18,92.97
30.888,17,232.19
30.907,17,152.05
30.925,18,232.29
30.944,16,147.58
30.963,16,233.05
30.982,18,234.41
31.000,15,233.12
31.020,17,231.30
31.038,17,233.04
31.056,18,217.79
31.075,17,218.06
31.094,17,92.63
31.112,18,93.26
31.129,16,93.04
31.148,17,92.89
31.165,17,233.46
31.183,15,233.14
31.202,17,234.33
31.221,16,95.49
31.239,18,95.54
31.256,15,95.22
31.273,15,94.77
31.292,17,95.06
31.309,15,233.04
31.328,15,97.14
31.346,17,99.57
31.364,17,231.32
31.382,15,158.56
31.400,16,233.95
31.420,18,93.96
31.437,16,235.14
31.456,15,230.62
31.474,17,219.23
31.494,16,230.91
31.512,17,231.42
31.531,17,232.71
31.550,15,232.20
31.568,15,139.77
31.587,16,232.27
31.605,15,140.76
31.625,16,145.93
31.643,16,140.27
31.662,16,150.40
31.681,16,140.39
31.699,14,144.62
31.718,16,96.56
31.735,14,96.83
31.754,15,96.81
31.771,15,95.30
31.789,16,94.98
31.806,15,96.81
31.824,16,94.88
31.842,16,94.47
31.859,15,95.73
31.877,14,96.41
31.895,16,94.88
31.912,16,94.98
31.930,16,94.61
31.948,16,95.29
31.966,16,94.91
31.983,16,94.59
32.001,16,95.01
32.019,16,94.91
32.036,14,94.91
32.054,15,95.01
32.071,16,96.44
32.090,17,96.48
32.107,16,97.05
32.124,16,96.51
32.142,15,95.81
32.160,15,96.81
32.178,14,96.22
32.195,16,97.19
32.214,14,95.98
32.231,16,97.72
32.248,16,96.61
32.266,16,97.33
32.284,17,96.90
32.302,16,96.90
32.319,14,96.99
32.336,16,97.67
32.355,16,96.90
32.372,14,98.31
32.390,14,98.67
32.407,15,97.19
32.425,15,97.53
32.443,15,100.01
32.461,15,100.15
32.481,15,99.54
32.498,15,99.20
32.516,14,98.92
32.533,15,98.82
32.551,15,99.67
32.569,15,139.81
32.587,13,146.08
32.606,16,140.34
32.625,15,97.53
32.643,14,98.07
32.660,15,97.65
32.678,15,97.53
32.696,15,97.94
32.713,15,98.91
32.731,16,97.97
32.749,14,98.40
32.766,14,98.80
32.784,16,98.91
32.801,15,99.25
32.820,15,98.80
32.837,15,98.82
32.855,16,98.92
32.872,14,98.80
32.890,15,98.82
32.908,14,100.08
32.926,15,99.65
32.945,15,99.64
32.962,16,100.90
32.980,15,99.45
32.998,16,100.38
33.017,16,144.55
33.036,16,101.69
33.054,15,101.93
33.073,15,99.57
33.091,14,100.06
33.110,14,100.61
33.128,14,99.65
33.146,15,99.65
33.164,15,100.10
33.182,14,99.77
33.200,16,100.52
33.219,14,99.25
33.236,15,98.40
33.254,14,99.33
33.271,15,98.80
33.290,15,97.97
33.307,14,97.97
33.325,14,98.50
33.343,13,98.82
33.360,14,100.08
33.379,15,100.61
33.397,13,99.47
33.416,14,100.15
33.434,14,99.67
33.452,14,100.90
33.470,13,102.14
33.489,14,104.19
33.508,14,152.56
33.526,15,104.58
33.546,13,104.65
33.564,14,105.09
33.583,14,102.60
33.601,14,103.84
33.620,13,101.78
33.639,13,102.17
33.657,15,103.46
33.677,16,102.36
33.695,15,102.87
33.714,14,102.14
33.732,13,103.60
33.752,14,102.51
33.770,13,104.24
33.788,14,103.62
33.807,14,105.72
33.826,14,104.47
33.845,12,105.71
33.863,14,103.22
33.883,15,103.26
33.901,14,103.29
33.920,14,103.33
33.938,14,102.94
33.957,14,103.36
33.976,13,102.97
33.994,14,104.23
34.014,14,104.67
34.032,15,103.39
34.051,13,102.99
34.069,14,104.63
34.088,13,102.95
34.107,13,104.19
34.125,14,104.19
34.145,14,144.02
34.163,13,143.77
34.182,13,105.93
34.200,13,103.43
34.220,13,104.69
34.238,14,104.60
34.256,13,105.11
34.276,15,104.26
34.294,14,103.84
34.313,13,104.24
34.331,14,105.54
34.351,12,152.52
34.369,13,144.42
34.387,14,105.54
34.406,13,105.13
34.425,13,104.67
34.444,15,104.26
34.462,15,106.81
34.482,15,105.55
34.500,13,104.60
34.519,13,104.72
34.537,14,105.15
34.556,14,104.30
34.575,13,105.15
34.593,14,104.31
34.613,14,105.13
34.631,14,103.89
34.650,13,105.15
34.668,14,105.13
34.688,14,105.54
34.706,14,231.86
34.724,13,232.31
34.744,14,163.01
34.762,14,106.30
34.781,13,105.13
34.799,13,105.11
34.819,14,103.85
34.837,14,104.58
34.855,13,105.09
34.875,14,104.69
34.893,13,105.94
34.912,13,104.28
34.930,14,103.85
34.950,13,103.43
34.968,12,103.45
34.987,13,103.84
35.005,12,103.43
35.024,13,102.99
35.043,14,104.26
35.061,13,104.26
35.081,14,103.43
35.099,13,103.00
35.118,14,103.00
35.136,14,103.04
35.155,13,104.28
35.174,14,103.07
35.192,13,104.74
35.212,13,103.92
35.230,14,104.74
35.249,13,103.90
35.267,14,104.72
35.287,15,104.30
35.305,14,103.46
35.323,14,103.02
35.343,15,103.04
35.361,12,103.04
35.380,13,103.87
35.398,13,103.89
35.418,13,103.04
35.436,13,103.05
35.454,13,103.87
35.474,13,103.00
35.492,13,103.43
35.511,15,102.60
35.529,14,103.85
35.549,13,104.28
35.567,13,103.04
35.586,14,103.87
35.604,14,103.48
35.623,14,103.46
35.642,13,103.89
35.660,13,104.31
35.680,15,103.89
35.698,13,103.85
35.717,13,103.00
35.735,15,103.45
35.755,12,103.85
35.773,13,104.28
35.791,14,105.11
35.811,14,104.67
35.829,14,104.67
35.848,13,102.99
35.866,12,103.80
35.886,14,102.58
35.904,14,103.43
35.922,15,103.46
35.942,12,103.89
35.960,14,103.46
35.979,14,103.00
35.997,13,103.02
36.017,14,102.58
36.035,13,104.16
36.054,13,102.14
36.073,12,102.14
36.091,14,102.53
36.110,14,102.10
36.128,14,102.51
36.148,14,102.10
36.166,14,102.51
36.185,14,101.68
36.203,14,102.10
36.222,13,101.68
36.241,12,101.34
36.259,14,102.49
36.279,14,101.20
36.297,13,102.03
36.316,12,100.78
36.334,15,102.02
36.354,14,100.79
36.372,14,101.32
36.390,14,101.18
36.410,13,100.38
36.428,13,101.59
36.447,14,100.79
36.465,14,101.18
36.485,14,100.78
36.503,14,102.12
36.521,13,102.83
36.541,13,101.18
36.559,13,102.83
36.578,14,100.83
36.596,15,102.85
36.616,13,100.81
36.634,13,100.81
36.653,14,102.87
36.672,14,100.81
36.690,14,102.87
36.709,13,102.46
36.727,14,100.79
36.747,13,102.44
36.765,13,101.20
36.784,13,101.20
36.802,14,101.22
36.822,14,101.69
36.840,13,101.85
36.858,14,103.00
36.878,14,103.07
36.896,13,104.69
36.915,13,103.58
36.933,14,103.58
36.953,14,105.23
36.971,15,103.56
36.989,13,103.97
37.009,13,103.99
37.027,14,105.16
37.046,14,104.04
37.064,12,104.47
37.084,13,104.11
37.102,14,105.84
37.121,13,104.24
37.140,14,105.15
37.158,14,106.05
37.177,14,105.01
37.195,13,105.54
37.215,14,105.16
37.233,14,106.71
37.252,13,105.15
37.271,13,105.16
37.289,13,105.15
37.308,13,106.79
37.326,14,102.56
37.346,14,103.09
37.364,14,103.97
37.383,13,101.71
37.401,13,103.05
37.421,13,102.77
37.439,13,102.80
37.457,13,102.80
37.477,12,104.04
37.495,12,102.80
37.514,13,102.82
37.532,13,102.80
37.552,13,102.83
37.570,13,102.82
37.588,14,102.43
37.608,13,102.83
37.626,13,102.48
37.645,13,104.19
37.663,13,103.04
37.683,13,104.06
37.701,12,105.47
37.720,12,107.85
37.739,13,107.24
37.757,13,106.93
37.776,14,106.85
37.794,13,106.23
37.814,13,108.04
37.832,13,108.12
37.851,13,106.73
37.870,12,107.34
37.889,12,106.61
37.907,12,107.36
37.925,12,106.30
37.945,14,109.07
37.963,14,106.95
37.982,13,106.30
38.000,14,107.42
38.020,12,105.81
38.038,12,108.31
38.056,13,105.74
38.076,12,105.45
38.094,13,105.35
38.113,13,105.42
38.131,12,109.00
38.151,13,106.93
38.169,13,107.34
38.188,12,107.76
38.207,14,108.24
38.225,13,108.88
38.244,12,107.20
38.262,13,105.01
38.282,13,105.42
38.300,14,106.32
38.319,13,107.59
38.338,13,107.58
38.356,14,107.03
38.375,14,107.15
38.393,13,107.98
38.413,14,108.04
38.431,14,109.65
38.450,13,108.95
38.469,14,108.99
38.488,12,110.94
38.506,14,111.04
38.524,13,112.30
38.544,14,224.84
38.562,14,124.39
38.581,14,111.42
38.599,13,107.66
38.619,15,107.76
38.637,12,107.68
38.656,13,108.39
38.675,12,110.79
38.693,13,112.37
38.712,14,113.42
38.730,13,112.35
38.750,12,112.51
38.768,12,113.15
38.787,12,113.54
38.806,13,112.00
38.824,13,113.37
38.843,11,112.18
38.861,13,113.53
38.881,12,113.92
38.899,13,113.51
38.918,14,111.74
38.937,12,112.69
38.956,12,112.40
38.974,13,113.68
38.992,13,116.08
39.012,13,114.80
39.030,13,114.36
39.049,13,114.04
39.068,13,114.34
39.087,12,112.81
39.105,11,113.63
39.123,11,114.33
39.143,12,113.51
39.161,11,114.34
39.180,12,113.63
39.198,12,113.10
39.218,13,113.93
39.236,11,114.05
39.255,13,112.93
39.274,12,116.16
39.292,13,111.59
39.311,13,112.15
39.329,12,112.06
39.349,11,111.64
39.367,11,112.17
39.386,12,112.61
39.405,11,113.68
39.424,12,112.13
39.442,11,112.68
39.460,11,114.56
39.480,11,113.44
39.498,12,227.41
39.517,12,112.85
39.536,12,112.98
39.555,11,113.99
39.573,11,118.68
39.591,12,114.80
39.611,12,117.50
39.629,11,113.95
39.648,12,116.60
39.667,12,115.94
39.686,13,119.36
39.704,12,115.26
39.723,11,116.64
39.742,12,115.58
39.760,14,118.37
39.779,12,119.07
39.797,13,119.29
39.817,13,116.52
39.835,13,117.10
39.854,12,124.05
39.873,12,166.01
39.891,13,128.91
39.910,13,227.02
39.928,13,116.55
39.948,12,118.27
39.966,12,118.01
39.985,13,118.34
40.004,13,116.76
40.023,12,120.17
40.041,13,121.21
40.059,12,118.27
40.079,12,117.79
40.097,12,117.81
40.116,12,118.41
40.135,11,117.81
40.154,12,117.62
40.172,11,118.24
40.190,13,118.44
40.210,12,118.61
40.228,12,119.22
40.247,13,121.06
40.266,13,122.08
40.285,12,119.36
40.303,13,120.36
40.322,12,119.71
40.341,11,120.70
40.359,13,120.43
40.378,11,120.58
40.396,11,120.68
40.416,11,119.90
40.434,11,122.04
40.453,13,120.33
40.472,11,149.18
40.491,12,122.77
40.509,10,120.36
40.527,12,120.80
40.547,10,120.89
40.565,12,120.56
40.584,10,121.09
40.603,11,120.73
40.622,11,120.79
40.640,11,121.60
40.658,11,122.43
40.678,11,121.57
40.696,11,121.58
40.715,10,120.31
40.734,12,122.89
40.753,11,122.79
40.771,11,121.18
40.790,11,120.33
40.809,11,120.75
40.827,10,120.65
40.846,11,121.21
40.865,12,122.06
40.884,11,122.08
40.902,11,120.85
40.921,11,120.55
40.940,11,122.40
40.958,12,122.55
40.977,11,121.21
40.995,10,122.74
41.015,11,127.08
41.033,10,123.59
41.052,11,123.28
41.071,11,122.09
41.090,12,122.86
41.108,12,122.54
41.126,11,124.66
41.146,11,122.96
41.164,10,122.54
41.183,12,122.54
41.202,10,122.55
41.221,11,225.76
41.239,10,123.37
41.257,11,122.09
41.277,10,123.83
41.295,12,122.11
41.314,10,124.27
41.333,11,122.59
41.352,10,122.94
41.370,11,121.48
41.389,13,124.20
41.408,11,123.08
41.426,10,122.25
41.445,11,122.45
41.464,11,123.73
41.483,11,127.65
41.501,11,121.07
41.520,10,122.38
41.539,10,121.99
41.558,11,122.77
41.576,10,122.45
41.594,10,122.88
41.614,12,123.30
41.632,10,125.80
41.651,10,124.13
41.670,10,122.45
41.689,11,123.22
41.707,11,123.34
41.725,11,149.14
41.745,10,124.76
41.763,10,144.74
41.782,9,127.35
41.800,11,147.20
41.819,11,129.42
41.837,10,124.85
41.856,10,124.10
41.875,10,124.54
41.893,10,125.26
41.912,10,124.08
41.931,10,125.39
41.950,8,124.88
41.967,9,128.40
41.985,10,125.92
42.004,11,125.51
42.022,10,127.52
42.041,9,128.03
42.058,9,128.01
42.077,10,127.47
42.095,11,125.87
42.114,11,126.74
42.133,11,127.91
42.151,10,127.14
42.170,10,124.85
42.188,11,125.36
42.208,11,125.82
42.226,10,124.73
42.245,11,127.09
42.264,10,128.01
42.283,9,125.99
42.300,9,125.75
42.317,9,126.60
42.336,9,125.34
42.353,11,126.50
42.372,10,126.19
42.390,10,126.19
42.409,9,129.88
42.427,9,128.91
42.444,10,126.09
42.464,9,126.65
42.481,9,127.18
42.499,9,126.12
42.516,8,130.03
42.534,10,129.13
42.553,8,128.30
42.570,10,129.66
42.589,8,130.02
42.607,10,129.18
42.626,9,129.64
42.643,10,128.54
42.662,11,126.46
42.681,10,125.99
42.699,8,127.81
42.717,10,126.57
42.736,9,127.74
42.754,9,126.89
42.771,9,126.58
42.788,9,127.86
42.807,9,126.91
42.824,8,145.96
42.842,9,127.72
42.859,9,126.55
42.877,9,227.82
42.895,9,128.95
42.912,10,129.34
42.932,8,147.95
42.949,9,147.99
42.967,10,148.05
42.985,10,147.31
43.004,9,149.16
43.022,9,130.48
43.039,10,130.90
43.058,9,128.93
43.076,8,129.68
43.094,9,129.34
43.111,9,129.32
43.129,10,130.46
43.148,9,233.10
43.165,9,148.85
43.183,10,148.33
43.202,9,146.78
43.219,10,150.01
43.238,8,149.26
43.255,10,147.20
43.275,9,147.63
43.292,10,148.05
43.311,9,147.31
43.329,8,147.63
43.346,9,147.20
43.364,8,146.49
43.381,8,146.88
43.400,9,147.17
43.417,9,130.02
43.435,10,146.88
43.453,9,149.57
43.471,10,146.78
43.490,10,149.99
43.508,9,148.84
43.527,9,148.31
43.544,10,152.05
43.563,10,148.10
43.581,10,151.59
43.600,9,156.54
43.618,9,156.43
43.635,9,159.82
43.653,10,160.67
43.672,9,159.73
43.689,9,160.58
43.707,8,159.44
43.724,9,146.35
43.743,9,154.48
43.760,9,152.95
43.778,9,148.82
43.796,9,130.48
43.813,10,128.79
43.832,8,129.34
43.849,8,133.28
43.868,9,128.81
43.885,9,127.65
43.902,9,135.32
43.920,9,127.40
43.938,9,126.79
43.956,9,128.40
43.973,8,129.15
43.991,10,127.77
44.010,9,156.64
44.027,9,129.35
44.045,10,129.37
44.064,9,130.44
44.082,9,174.20
44.099,10,226.75
44.118,10,130.44
44.137,8,147.61
44.154,8,148.31
44.172,7,131.22
44.189,8,130.37
44.208,9,131.10
44.225,9,131.24
44.242,8,151.64
44.261,8,129.13
44.278,7,129.57
44.296,8,130.14
44.313,8,131.22
44.332,7,129.98
44.349,9,129.54
44.366,8,131.16
44.384,9,233.21
44.402,9,154.55
44.420,9,130.68
44.437,7,132.06
44.454,9,172.96
44.473,8,131.94
44.490,9,132.06
44.508,8,130.75
44.526,9,130.32
44.544,9,131.51
44.561,7,130.02
44.578,9,132.33
44.597,8,131.07
44.614,9,130.68
44.632,9,133.77
44.649,9,129.13
44.667,8,129.88
44.685,8,173.35
44.702,9,132.01
44.720,10,129.95
44.739,10,133.13
44.758,9,136.19
44.775,7,130.49
44.793,8,130.71
44.811,8,130.00
44.828,8,132.04
44.846,9,130.80
44.864,9,131.07
44.881,8,131.07
44.899,8,130.53
44.916,10,131.10
44.936,8,133.98
44.953,9,130.36
44.971,8,130.08
44.988,8,132.74
45.006,7,130.44
45.024,10,136.17
45.042,9,130.12
45.061,9,130.07
45.078,8,128.78
45.095,8,129.30
45.113,8,130.15
45.131,8,130.44
45.149,9,130.42
45.166,8,130.03
45.184,9,134.76
45.202,8,129.44
45.219,9,129.01
45.237,9,129.98
45.254,8,127.84
45.273,9,130.63
45.290,8,130.42
45.307,9,128.71
45.326,9,129.47
45.343,9,128.15
45.361,7,129.97
45.378,9,129.10
45.396,9,127.70
45.414,8,127.76
45.431,8,128.67
45.449,9,128.71
45.467,8,130.59
45.485,9,129.01
45.502,8,129.57
45.519,9,129.47
45.538,7,129.54
45.555,9,129.30
45.573,8,129.78
45.591,9,128.18
45.608,8,127.65
45.626,9,128.20
45.643,9,129.51
45.662,8,146.37
45.679,8,129.27
45.697,8,128.62
45.714,8,130.99
45.732,9,133.62
45.750,10,133.21
45.768,8,133.33
45.786,9,133.67
45.804,8,130.42
45.821,9,131.26
45.839,7,131.31
45.857,8,131.24
45.875,9,130.08
45.892,8,129.85
45.910,8,128.18
45.928,8,132.84
45.945,9,129.32
45.963,9,130.63
45.980,9,131.63
45.999,7,144.26
46.016,7,134.81
46.033,8,134.69
46.051,8,130.46
46.069,8,132.84
46.087,8,136.83
46.104,9,132.97
46.123,7,135.13
46.140,7,135.35
46.157,7,130.27
46.175,9,135.10
46.193,9,134.69
46.211,7,134.64
46.228,8,133.09
46.245,8,135.51
46.264,8,133.38
46.281,8,135.52
46.299,9,135.97
46.316,8,136.41
46.334,9,136.39
46.352,7,136.41
46.369,8,137.29
46.387,7,135.41
46.405,7,136.92
46.423,8,138.04
46.440,7,134.20
46.458,9,136.73
46.476,9,136.75
46.493,7,137.17
46.511,7,140.03
46.529,7,137.12
46.546,8,137.51
46.564,8,137.48
46.581,6,137.85
46.600,8,139.96
46.617,7,140.69
46.635,7,141.22
46.652,8,140.81
46.670,6,150.01
46.688,8,179.06
46.705,8,147.71
46.724,8,187.97
46.741,7,145.13
46.758,7,146.49
46.776,9,148.50
46.794,7,142.44
46.812,7,173.01
46.829,8,147.29
46.846,8,144.36
46.865,6,178.28
46.882,8,146.35
46.900,7,176.19
46.917,7,146.40
46.936,7,234.35
46.953,8,147.31
46.970,8,146.05
46.989,6,167.14
47.006,7,145.98
47.024,7,152.58
47.041,8,170.92
47.059,7,147.17
47.077,7,158.95
47.094,8,146.44
47.112,7,159.02
47.130,6,148.73
47.148,6,149.96
47.165,8,146.86
47.182,7,152.05
47.201,8,147.20
47.218,7,167.65
47.236,7,146.86
47.254,8,147.19
47.271,7,231.80
47.289,8,148.07
47.306,8,147.73
47.325,8,164.76
47.342,8,149.50
47.360,8,146.85
47.377,8,146.42
47.395,9,148.33
47.413,8,147.93
47.430,6,146.88
47.448,8,147.17
47.466,7,164.83
47.483,8,165.22
47.501,6,165.61
47.518,7,165.24
47.537,6,146.78
47.554,7,146.05
47.571,8,150.01
47.590,7,147.95
47.607,7,150.82
47.625,7,150.94
47.642,7,146.86
47.661,7,148.29
47.678,8,146.80
47.695,7,147.29
47.713,7,148.34
47.731,7,146.35
47.749,7,147.65
47.766,7,148.85
47.783,7,147.19
47.802,7,147.22
47.819,9,146.90
47.837,8,145.64
47.855,7,146.35
47.873,7,149.97
47.890,7,148.84
47.907,6,146.86
47.926,7,147.63
47.943,7,146.35
47.961,7,154.09
47.978,6,147.92
47.996,7,147.61
48.014,6,147.61
48.031,6,148.84
48.049,6,146.76
48.067,6,147.97
48.084,7,147.25
48.102,8,147.70
48.120,7,147.19
48.138,7,147.17
48.155,5,148.09
48.173,8,147.29
48.191,7,149.14
48.208,6,233.09
48.226,8,234.48
48.243,7,233.94
48.262,7,179.81
48.279,7,187.58
48.296,6,172.07
48.314,7,171.80
48.332,7,235.50
48.350,6,169.75
48.367,6,149.21
48.386,7,148.29
48.403,7,147.61
48.420,7,129.42
48.438,6,147.29
48.456,6,145.93
48.474,7,146.78
48.491,7,147.29
48.508,7,149.12
48.527,7,146.76
48.544,8,151.62
48.562,6,163.17
48.579,7,149.96
48.598,7,146.76
48.615,7,152.05
48.632,6,234.02
48.650,8,154.09
48.668,5,147.19
48.686,7,178.72
48.703,6,148.39
48.721,7,147.20
48.739,7,154.99
48.756,7,148.04
48.774,8,154.11
48.792,8,148.72
48.809,6,154.09
48.827,7,172.55
48.844,7,151.22
48.863,6,154.53
48.880,8,156.91
48.898,7,149.62
48.915,8,146.76
48.933,6,148.27
48.951,6,148.05
48.968,6,149.23
48.987,7,147.61
49.004,7,146.32
49.021,6,146.88
49.039,6,146.03
49.057,6,145.95
49.075,7,147.99
49.092,7,147.31
49.110,6,148.29
49.128,8,147.19
49.145,8,146.74
49.163,6,147.29
49.180,7,146.76
49.199,7,147.19
49.216,7,127.74
49.233,6,146.46
49.252,7,148.31
49.269,7,146.78
49.287,7,147.71
49.304,6,179.44
49.323,6,162.79
49.340,7,161.65
49.357,6,162.78
49.375,6,181.19
49.393,6,164.80
49.411,8,149.53
49.428,6,148.05
49.445,6,148.72
49.464,6,149.53
49.481,6,149.11
49.499,7,148.07
49.517,6,148.72
49.534,7,149.53
49.552,7,161.98
49.569,6,150.37
49.588,6,147.17
49.605,6,147.20
49.623,7,148.84
49.640,7,146.44
49.658,8,148.27
49.676,6,151.22
49.693,6,148.41
49.711,7,149.14
49.729,6,147.93
49.746,7,167.06
49.764,6,152.86
49.781,7,148.68
49.800,5,165.16
49.817,5,132.60
49.835,5,148.80
49.853,6,147.93
49.870,7,148.72
49.888,4,149.67
49.905,5,149.55
49.924,7,148.31
49.941,6,147.15
49.958,6,147.25
49.976,5,147.97
49.994,4,148.29
50.012,5,149.14
50.029,7,148.39
50.046,6,149.55
50.065,6,164.83
50.082,5,127.72
50.100,7,147.68
50.118,5,148.29
50.136,6,147.59
50.153,5,146.85
50.170,6,148.39
50.189,5,147.59
50.206,7,147.58
50.224,6,168.25
50.241,5,169.13
50.259,5,169.63
50.277,5,168.40
50.294,5,167.67
50.312,4,146.73
50.330,5,168.44
50.348,5,168.08
50.365,5,167.59
50.383,4,146.34
50.401,5,146.76
50.418,6,169.07
50.436,5,169.86
50.454,5,169.20
50.471,4,170.00
50.489,4,147.27
50.506,5,169.58
50.525,5,189.01
50.542,5,147.15
50.560,5,168.73
50.577,6,146.42
50.595,5,168.22
50.613,5,130.82
50.630,6,170.02
50.649,5,147.88
50.666,4,150.74
50.683,5,177.26
50.701,6,232.76
50.719,5,151.56
50.737,5,158.53
50.754,5,148.77
50.771,5,150.31
50.790,5,148.26
50.807,4,148.67
50.825,6,149.99
50.842,4,147.15
50.861,5,148.67
50.878,5,170.90
50.895,5,157.81
50.913,6,158.24
50.931,6,149.92
50.949,6,149.19
50.966,6,148.36
50.984,6,149.91
51.002,6,150.35
51.019,7,158.68
51.037,5,149.50
51.055,6,146.73
51.073,5,150.76
51.090,6,172.58
51.107,5,149.92
51.126,5,172.94
51.143,4,149.06
51.161,5,170.09
51.178,7,147.83
51.196,5,158.97
51.214,5,131.78
51.231,4,157.40
51.250,6,158.27
51.267,6,149.09
51.284,6,174.25
51.302,6,159.09
51.320,5,149.11
51.338,4,157.73
51.355,5,159.51
51.373,5,150.76
51.391,5,165.19
51.408,5,149.11
51.426,5,148.36
51.443,4,147.87
51.462,4,158.24
51.479,5,130.59
51.496,5,151.18
51.515,6,149.50
51.532,4,159.39
51.550,6,157.42
51.567,5,151.16
51.586,5,164.80
51.603,5,150.77
51.620,6,147.66
51.638,6,150.76
51.656,4,149.52
51.674,5,150.35
51.691,5,232.78
51.708,5,149.92
51.727,6,159.82
51.744,5,128.89
51.762,5,150.33
51.780,4,150.33
51.798,5,146.73
51.815,5,174.06
51.832,5,148.38
51.851,6,175.00
51.868,4,147.92
51.886,5,157.44
51.903,5,193.85
51.921,5,149.07
51.939,5,151.61
51.956,5,189.21
51.974,4,148.70
51.992,6,149.52
52.009,4,148.67
52.027,4,159.53
52.044,5,152.03
52.063,6,149.53
52.080,5,149.63
52.098,7,148.39
52.116,5,147.56
52.133,4,152.86
52.151,6,146.83
52.168,4,147.27
52.187,5,147.58
52.204,6,147.59
52.221,5,149.21
52.239,5,148.68
52.257,4,147.97
52.275,6,148.29
52.292,6,147.68
52.310,5,129.34
52.328,6,147.99
52.345,5,130.22
52.363,5,150.81
52.381,6,147.14
52.399,6,147.17
52.416,7,146.44
52.433,7,174.23
52.452,6,148.68
52.469,5,148.00
52.487,5,174.68
52.504,6,173.42
52.523,8,146.76
52.540,7,174.59
52.557,7,172.98
52.575,8,173.83
52.593,8,172.53
52.611,8,172.96
52.628,8,146.85
52.646,8,172.52
52.664,7,173.84
52.681,6,173.83
52.699,6,174.68
52.717,6,147.95
52.734,6,146.32
52.752,6,151.27
52.769,7,147.68
52.788,5,171.70
52.805,4,150.35
52.823,5,150.45
52.840,6,129.44
52.858,5,150.76
52.876,6,129.73
52.893,5,150.04
52.912,5,151.16
52.929,6,147.56
52.946,4,128.18
52.964,5,147.25
52.982,6,152.42
53.000,5,149.92
53.017,4,151.67
53.035,5,147.27
53.053,5,147.56
53.070,4,147.14
53.088,6,148.39
53.105,3,150.74
53.124,6,148.27
53.141,4,149.12
53.158,5,147.68
53.176,5,146.73
53.194,5,146.30
53.212,6,148.38
53.229,5,146.83
53.248,5,147.15
53.265,5,147.58
53.282,5,147.27
53.300,5,147.27
53.318,4,149.53
53.336,5,149.52
53.353,5,148.38
53.370,5,148.27
53.389,5,146.74
53.406,5,146.73
53.424,5,150.47
53.441,6,147.88
53.459,4,147.14
53.477,5,149.23
53.494,5,146.86
53.513,4,147.19
53.530,5,147.17
53.548,5,148.80
53.565,6,146.42
53.583,4,149.96
53.601,5,147.58
53.618,5,147.68
53.636,5,149.96
53.654,5,147.17
53.671,4,147.99
53.689,5,148.82
53.706,5,148.27
53.725,4,148.29
53.742,4,147.68
53.760,5,147.27
53.778,5,146.73
53.795,4,147.17
53.813,4,149.65
53.830,4,148.41
53.849,4,145.89
53.866,2,147.59
53.883,3,146.00
53.901,3,147.95
53.919,2,147.59
53.937,2,148.72
53.954,0,148.82
53.971,1,147.58
53.990,2,149.99
54.007,2,128.03
54.025,1,146.86
54.043,2,147.58
54.061,1,147.95
54.078,1,149.63
54.095,1,150.76
54.114,0,146.74
54.131,2,147.95
54.149,1,151.30
54.166,1,148.05
54.184,0,148.29
54.202,0,147.95
54.219,0,148.85
54.237,0,146.86
54.255,0,148.31
54.273,0,146.76
54.290,0,147.27
54.307,1,128.16
54.326,0,149.57
54.343,0,130.93
54.361,0,146.40
54.379,0,148.29
54.396,0,149.11
54.414,0,149.63
54.431,0,148.29
54.450,0,172.57
54.467,1,173.76
54.484,1,173.43
