time,intensity,distance
0.001,905,2.35
0.002,905,2.40
0.007,903,2.75
0.023,902,2.24
0.039,904,2.35
0.056,903,2.40
0.073,903,2.40
0.090,903,2.30
0.106,903,2.40
0.122,902,2.35
0.140,903,2.40
0.156,902,2.24
0.173,903,2.35
0.189,902,2.35
0.206,904,2.40
0.223,903,2.30
0.239,903,2.40
0.256,901,2.40
0.273,902,2.41
0.289,903,2.30
0.306,904,2.40
0.322,903,2.35
0.339,904,2.40
0.356,902,2.24
0.372,902,2.40
0.389,903,2.41
0.406,902,2.40
0.422,902,2.24
0.439,903,2.40
0.455,903,2.40
0.473,902,2.40
0.489,902,2.30
0.505,901,2.36
0.522,901,2.40
0.539,903,2.35
0.556,904,2.30
0.572,902,2.36
0.588,903,2.40
0.606,902,2.35
0.622,902,2.24
0.638,902,2.40
0.655,902,2.40
0.672,902,2.35
0.689,904,2.24
0.705,905,2.40
0.721,902,2.35
0.739,904,2.35
0.755,903,2.24
0.772,902,2.35
0.788,903,2.35
0.805,905,2.35
0.822,902,2.24
0.838,903,2.35
0.855,904,2.35
0.872,902,2.35
0.888,903,2.24
0.905,905,2.35
0.921,903,2.35
0.939,905,2.35
0.955,905,2.24
0.971,904,2.35
0.988,904,2.35
1.005,904,2.35
1.021,903,2.24
1.038,903,2.35
1.054,903,2.35
1.072,903,2.35
1.088,904,2.24
1.104,903,2.36
1.121,904,2.35
1.138,904,2.35
1.155,905,2.24
1.171,904,2.35
1.187,906,2.36
1.205,904,2.35
1.221,904,2.24
1.238,904,2.35
1.254,904,2.35
1.271,905,2.36
1.288,905,2.24
1.304,906,2.35
1.320,903,2.36
1.338,904,2.35
1.354,902,2.24
1.371,904,2.35
1.387,904,2.35
1.404,904,2.35
1.421,904,2.24
1.437,903,2.35
1.454,903,2.35
1.471,902,2.36
1.487,902,2.30
1.504,902,2.40
1.520,902,2.40
1.538,901,2.41
1.554,901,2.30
1.570,901,2.40
1.587,900,2.40
1.604,901,2.40
1.620,901,2.30
1.637,903,2.40
1.653,903,2.40
1.671,904,2.41
1.687,903,2.24
1.703,902,2.35
1.720,903,2.35
1.737,903,2.35
1.754,903,2.24
1.770,903,2.35
1.786,903,2.40
1.804,902,2.40
1.820,901,2.30
1.837,901,2.45
1.853,898,2.45
1.870,896,2.45
1.887,898,2.35
1.903,898,2.45
1.920,899,2.45
1.937,900,2.40
1.953,900,2.30
1.970,899,2.40
1.986,900,2.40
2.003,900,2.41
2.020,902,2.30
2.036,905,2.35
2.053,904,2.35
2.070,907,2.31
2.086,908,2.19
2.103,909,2.65
2.119,909,2.24
2.137,909,2.24
2.153,909,2.14
2.169,910,2.24
2.186,911,2.24
2.203,909,2.24
2.220,909,2.60
2.236,908,2.30
2.252,907,2.30
2.270,907,2.30
2.286,907,2.19
2.302,908,2.65
2.319,911,2.24
2.336,910,2.24
2.353,912,2.57
2.369,912,2.19
2.385,912,2.21
2.403,911,2.19
2.419,911,2.09
2.436,911,2.19
2.452,911,2.60
2.469,910,2.65
2.486,913,2.55
2.502,912,2.65
2.519,910,2.65
2.536,912,2.60
2.552,911,2.09
2.569,913,2.19
2.585,913,2.55
2.603,915,2.14
2.619,914,2.45
2.635,914,2.14
2.652,912,2.55
2.669,911,2.19
2.685,911,2.50
2.702,909,2.24
2.718,909,2.24
2.736,908,2.65
2.752,908,2.60
2.768,908,2.70
2.785,908,2.70
2.802,908,2.24
2.819,910,2.14
2.835,911,2.24
2.851,910,2.65
2.869,911,2.19
2.885,911,2.09
2.902,911,2.19
2.918,911,2.60
2.935,913,2.60
2.952,913,2.50
2.968,913,2.55
2.984,913,2.55
3.002,912,2.55
3.018,913,2.45
3.035,913,2.60
3.051,915,2.60
3.068,913,2.60
3.085,914,2.09
3.101,912,2.24
3.118,912,2.35
3.135,910,1.99
3.151,909,1.94
3.168,906,2.45
3.184,904,2.09
3.202,904,2.09
3.218,904,2.45
3.234,904,2.14
3.251,904,2.60
3.268,901,2.24
3.284,899,2.58
3.301,898,2.40
3.317,896,2.47
3.335,894,2.55
3.351,895,2.96
3.367,893,3.16
3.384,890,2.86
3.401,888,3.37
3.418,885,3.37
3.434,882,3.57
3.450,879,3.26
3.468,875,3.77
3.484,871,3.72
3.501,867,3.88
3.517,863,3.52
3.534,864,3.57
3.551,860,3.52
3.567,860,3.67
3.584,857,3.72
3.601,854,3.83
3.617,852,3.83
3.634,850,4.03
3.650,849,4.18
3.667,844,4.34
3.684,841,4.34
3.700,836,4.13
3.717,834,4.64
3.734,832,4.69
3.750,830,4.64
3.767,828,4.79
3.783,828,4.44
3.801,828,4.44
3.817,825,4.39
3.833,825,4.49
3.850,826,4.49
3.867,823,4.54
3.884,821,4.49
3.900,818,4.64
3.916,815,5.10
3.934,813,5.20
3.950,810,5.15
3.966,807,4.95
3.983,805,5.46
4.000,799,5.56
4.017,797,5.56
4.033,791,5.36
4.049,788,5.87
4.067,785,5.87
4.083,781,5.92
4.100,779,6.07
4.116,778,6.07
4.133,778,5.58
4.150,778,5.56
4.166,779,5.66
4.183,779,5.66
4.200,779,5.58
4.216,779,5.56
4.233,781,6.02
4.249,780,6.02
4.267,781,5.92
4.283,781,5.92
4.299,782,6.02
4.316,783,5.97
4.333,784,5.87
4.349,783,5.87
4.366,784,5.97
4.382,786,5.97
4.400,785,5.87
4.416,784,5.87
4.432,785,5.97
4.449,786,5.97
4.466,786,5.87
4.483,785,5.87
4.499,787,6.02
4.515,785,6.02
4.533,786,5.90
4.549,785,5.97
4.566,784,6.07
4.582,782,6.12
4.599,783,6.07
4.616,781,6.12
4.632,779,6.73
4.648,777,7.63
4.666,776,8.38
4.682,772,10.30
4.700,769,8.16
4.716,766,7.84
4.733,762,7.85
4.750,759,8.30
4.766,757,8.52
4.783,756,8.52
4.800,755,8.40
4.816,753,9.61
4.833,753,77.13
4.850,751,12.39
4.869,750,9.89
4.885,751,8.64
4.901,748,8.45
4.918,749,8.06
4.935,746,7.94
4.952,747,7.94
4.968,746,8.04
4.984,747,7.99
5.002,745,7.48
5.018,746,7.48
5.035,747,7.58
5.051,747,7.60
5.068,745,7.09
5.085,744,7.45
5.101,743,7.14
5.117,742,7.14
5.135,742,7.04
5.151,742,7.02
5.168,742,7.12
5.184,743,7.07
5.201,742,6.97
5.218,743,6.99
5.234,742,7.07
5.251,746,7.07
5.268,744,6.92
5.284,746,6.94
5.301,746,7.04
5.317,747,7.04
5.335,746,6.94
5.351,748,6.94
5.367,747,7.02
5.384,748,7.04
5.401,748,6.94
5.417,746,6.94
5.434,748,7.04
5.450,746,7.04
5.468,748,6.92
5.484,747,6.92
5.500,746,7.04
5.517,748,7.02
5.534,745,6.92
5.551,748,6.94
5.567,745,7.04
5.583,746,7.04
5.601,745,6.94
5.617,745,6.92
5.634,745,7.04
5.650,744,7.02
5.667,743,6.99
5.684,743,6.99
5.700,742,7.07
5.716,743,7.07
5.734,741,6.99
5.750,740,6.99
5.767,741,7.14
5.783,740,7.14
5.800,739,7.07
5.817,738,7.12
5.833,738,7.24
5.850,734,7.29
5.867,731,7.24
5.883,729,6.89
5.900,728,7.40
5.916,728,7.04
5.934,726,6.94
5.950,724,6.99
5.966,725,7.55
5.983,725,7.53
6.000,725,7.50
6.017,723,7.48
6.033,722,7.65
6.049,722,7.68
6.067,722,7.60
6.083,722,7.65
6.099,721,7.75
6.116,721,7.80
6.133,718,7.75
6.150,714,7.85
6.166,711,8.47
6.182,707,8.40
6.200,703,8.40
6.216,704,8.09
6.233,701,8.50
6.249,700,8.25
6.266,698,8.14
6.283,697,8.14
6.299,696,8.31
6.316,696,8.31
6.333,694,8.26
6.349,692,8.26
6.366,690,8.42
6.382,688,8.38
6.400,687,8.36
6.416,687,8.38
6.432,686,8.47
6.449,685,8.42
6.466,686,8.38
6.482,687,8.72
6.499,685,8.48
6.515,683,8.53
6.533,682,8.82
6.549,681,8.94
6.565,679,9.10
6.582,676,9.04
6.599,676,9.10
6.616,671,9.13
6.632,670,8.89
6.648,666,8.84
6.666,664,8.94
6.682,663,9.35
6.699,662,9.55
6.715,660,9.50
6.732,658,9.61
6.749,656,9.66
6.765,654,9.81
6.781,653,9.76
6.799,651,10.20
6.816,648,10.30
6.834,647,10.47
6.852,645,10.40
6.870,642,10.47
6.887,642,10.17
6.904,640,10.15
6.923,639,10.10
6.940,640,10.10
6.958,637,10.22
6.975,637,10.25
6.993,635,10.20
7.011,632,10.25
7.028,630,10.40
7.046,629,10.37
7.064,626,10.40
7.081,624,10.46
7.099,623,10.61
7.116,622,10.51
7.135,621,10.51
7.152,621,10.63
7.170,621,10.61
7.188,621,10.56
7.205,621,10.51
7.223,621,10.61
7.240,621,10.68
7.259,621,10.56
7.276,620,10.61
7.293,619,10.73
7.311,618,11.07
7.329,618,11.12
7.347,616,11.17
7.364,614,11.34
7.382,612,10.88
7.400,610,10.91
7.417,610,11.03
7.435,610,11.07
7.453,608,10.98
7.471,609,10.98
7.488,607,11.07
7.505,607,11.08
7.524,607,10.97
7.541,607,11.37
7.559,606,11.12
7.576,604,11.42
7.595,603,11.48
7.612,602,11.48
7.629,602,11.63
7.647,600,11.58
7.665,599,11.58
7.683,599,11.73
7.700,599,11.73
7.718,598,11.70
7.736,598,11.71
7.753,598,11.83
7.771,596,12.19
7.789,597,11.80
7.806,594,11.83
7.824,593,11.95
7.841,592,11.88
7.860,590,11.88
7.877,590,11.93
7.895,589,12.05
7.912,589,11.93
7.930,588,11.93
7.948,589,12.34
7.965,588,12.04
7.984,588,12.36
8.001,589,12.41
8.018,590,12.50
8.036,588,12.80
8.054,587,12.44
8.072,586,12.50
8.089,584,12.24
8.107,581,11.78
8.125,580,11.78
8.142,577,11.83
8.160,576,11.99
8.177,575,11.88
8.196,575,11.88
8.213,577,11.88
8.230,577,11.99
8.248,576,12.29
8.266,575,12.34
8.284,576,12.44
8.301,576,12.77
8.320,576,12.80
8.337,575,12.80
8.354,575,12.92
8.372,576,12.80
8.390,576,12.39
8.408,575,12.39
8.425,575,12.90
8.442,576,12.82
8.461,575,12.80
8.478,575,12.82
8.496,576,12.90
8.513,573,12.46
8.531,574,12.44
8.549,573,12.95
8.566,573,12.90
8.585,573,12.90
8.602,572,12.95
8.620,573,13.11
8.637,572,13.04
8.655,569,13.52
8.673,567,14.43
8.690,562,14.65
8.708,557,13.87
8.726,553,13.57
8.743,548,13.72
8.761,544,13.52
8.778,540,13.11
8.797,538,13.16
8.814,537,13.72
8.832,537,13.67
8.850,536,14.13
8.867,536,14.59
8.885,535,15.59
8.902,534,19.72
8.921,533,29.21
8.938,533,16.68
8.955,530,15.05
8.973,529,15.05
8.991,529,14.64
9.009,531,15.05
9.026,530,15.45
9.043,530,15.45
9.062,530,15.45
9.079,528,15.45
9.097,529,14.99
9.115,526,14.59
9.133,527,14.59
9.150,527,14.69
9.167,528,15.05
9.186,527,15.05
9.203,527,14.57
9.221,528,14.28
9.238,528,14.13
9.256,530,13.72
9.274,529,14.09
9.291,528,13.77
9.309,530,13.67
9.327,530,13.67
9.345,531,13.62
9.362,530,13.21
9.379,532,13.21
9.398,532,13.62
9.415,533,13.72
9.433,533,13.16
9.451,534,13.16
9.468,534,13.11
9.486,533,13.21
9.503,534,13.11
9.522,535,13.06
9.539,535,13.06
9.556,536,13.18
9.574,536,13.06
9.592,536,13.06
9.610,535,13.11
9.627,536,13.21
9.645,536,13.06
9.663,536,13.06
9.680,536,13.18
9.698,538,13.06
9.716,538,13.06
9.734,537,13.09
9.751,537,13.21
9.768,537,13.06
9.787,536,13.06
9.804,538,13.06
9.822,536,13.16
9.839,538,13.06
9.858,536,13.04
9.875,536,13.06
9.892,535,13.16
9.910,536,13.06
9.928,536,13.04
9.946,535,13.16
9.963,535,13.06
9.981,535,13.06
9.999,534,13.06
10.016,536,13.16
10.035,536,13.06
10.054,535,13.06
10.073,535,13.06
10.091,534,13.16
10.109,534,13.06
10.129,535,13.06
10.147,534,13.21
10.166,533,13.12
10.185,534,13.09
10.204,532,13.11
10.222,532,13.26
10.241,532,13.16
10.260,531,13.21
10.278,532,13.36
10.297,531,13.67
10.316,532,13.70
10.335,531,13.72
10.353,529,13.82
10.372,529,13.70
10.391,528,13.36
10.409,527,13.41
10.428,525,13.46
10.447,523,13.52
10.466,521,13.62
10.484,520,13.77
10.503,518,13.77
10.522,517,13.80
10.541,515,13.87
10.559,513,13.92
10.577,512,14.43
10.597,510,14.48
10.615,509,14.23
10.634,509,14.18
10.653,506,14.23
10.672,504,14.28
10.690,503,14.33
10.708,501,14.43
10.728,499,14.54
10.746,497,14.74
10.765,495,14.69
10.784,492,14.84
10.803,488,14.94
10.821,488,14.99
10.840,484,15.05
10.859,483,15.10
10.877,484,15.25
10.896,483,15.15
10.915,484,15.13
10.934,484,15.15
10.952,482,15.15
10.971,482,15.18
10.990,481,15.23
11.009,478,15.30
11.027,477,15.39
11.046,473,15.44
11.065,471,15.50
11.083,472,15.54
11.102,469,15.61
11.121,468,15.66
11.140,467,15.71
11.158,466,16.12
11.176,465,15.74
11.196,464,15.81
11.214,463,15.96
11.233,464,15.91
11.252,460,15.96
11.271,461,16.01
11.289,458,16.12
11.308,457,16.17
11.327,455,16.25
11.345,452,16.46
11.364,450,16.47
11.383,450,16.93
11.402,448,17.07
11.420,446,17.19
11.439,443,17.27
11.458,442,17.80
11.476,440,17.54
11.495,435,18.09
11.514,432,18.21
11.533,431,18.29
11.551,430,18.82
11.570,429,18.80
11.589,429,18.85
11.608,428,18.72
11.626,429,18.82
11.645,428,18.04
11.664,427,18.05
11.682,427,18.05
11.701,428,18.04
11.720,428,18.04
11.739,427,18.04
11.757,427,18.05
11.776,426,18.45
11.795,428,18.50
11.813,427,18.50
11.832,425,18.51
11.851,425,18.56
11.870,424,18.62
11.888,423,18.65
11.907,421,18.75
11.926,419,18.39
11.944,419,18.45
11.963,418,18.50
11.982,416,18.55
12.001,415,19.02
12.019,415,19.11
12.038,413,19.18
12.057,411,19.28
12.076,410,19.38
12.094,408,19.87
12.113,407,19.99
12.132,404,19.67
12.150,404,19.72
12.169,402,19.77
12.188,402,19.77
12.207,401,19.72
12.225,400,20.23
12.244,401,20.28
12.263,400,20.28
12.281,400,20.38
12.300,400,20.43
12.319,398,20.48
12.338,395,20.03
12.356,393,20.60
12.375,392,20.69
12.394,391,20.81
12.412,389,20.86
12.431,389,20.93
12.450,389,20.94
12.469,387,20.89
12.487,387,21.40
12.506,387,21.05
12.525,386,21.40
12.544,384,21.20
12.562,383,21.25
12.581,382,21.37
12.600,379,21.35
12.618,379,21.10
12.637,376,20.81
12.656,374,20.89
12.675,373,21.35
12.693,371,21.45
12.712,370,21.56
12.731,368,21.56
12.749,366,21.76
12.768,368,22.22
12.787,366,22.61
12.806,364,23.07
12.824,364,23.24
12.844,362,23.29
12.862,362,23.24
12.880,361,23.39
12.899,360,23.04
12.918,359,23.43
12.937,357,23.49
12.955,355,23.24
12.974,354,23.29
12.993,354,23.68
13.011,353,23.38
13.030,351,23.44
13.049,349,24.21
13.068,349,24.19
13.086,349,25.14
13.105,350,24.75
13.124,350,25.07
13.143,350,26.30
13.161,349,26.72
13.180,348,27.52
13.199,349,26.32
13.217,347,25.36
13.236,347,24.14
13.255,346,24.50
13.274,344,24.67
13.292,342,25.59
13.312,339,26.37
13.330,337,23.68
13.348,335,23.90
13.367,333,23.14
13.386,332,23.48
13.405,332,23.17
13.423,331,23.70
13.443,330,23.75
13.461,331,24.09
13.479,332,24.26
13.498,331,25.53
13.517,331,49.35
13.536,331,50.24
13.554,331,50.25
13.573,331,49.03
13.592,329,28.31
13.611,330,27.18
13.629,330,26.78
13.648,329,27.52
13.667,329,50.54
13.685,327,51.12
13.704,327,48.77
13.723,326,51.00
13.742,325,25.96
13.760,324,25.96
13.779,323,25.84
13.798,322,26.32
13.816,322,27.34
13.835,322,27.29
13.854,321,26.10
13.873,320,25.94
13.891,321,25.57
13.911,320,25.86
13.929,320,26.21
13.947,319,28.85
13.966,317,30.07
13.985,319,50.56
14.004,317,50.22
14.022,316,52.87
14.042,315,53.84
14.060,316,51.00
14.078,314,50.61
14.097,314,50.24
14.116,314,50.22
14.135,315,51.48
14.153,315,50.20
14.172,315,49.81
14.191,315,49.79
14.210,314,49.91
14.228,314,49.83
14.247,315,49.84
14.266,314,49.84
14.284,314,50.37
14.303,313,53.91
14.322,312,51.53
14.341,312,51.63
14.359,311,31.77
14.379,309,51.53
14.397,308,27.74
14.415,309,26.61
14.434,307,26.21
14.453,309,26.57
14.472,308,26.27
14.490,308,26.27
14.510,308,26.62
14.528,307,26.27
14.546,305,26.83
14.565,305,26.93
14.584,304,26.47
14.603,303,26.93
14.621,303,26.21
14.641,302,26.20
14.659,302,26.21
14.678,302,26.78
14.696,302,26.81
14.715,302,26.72
14.734,302,26.72
14.752,301,26.83
14.771,301,26.72
14.790,302,27.13
14.809,301,27.69
14.827,300,27.29
14.846,300,27.22
14.865,299,26.91
14.883,299,26.66
14.902,298,27.49
14.921,297,27.57
14.940,296,27.39
14.958,293,27.47
14.978,292,27.42
14.996,292,27.93
15.014,291,28.08
15.033,291,28.88
15.052,290,28.93
15.071,289,28.24
15.089,289,28.71
15.109,287,27.81
15.127,287,28.29
15.145,287,29.32
15.164,286,29.27
15.183,285,29.34
15.202,286,30.28
15.220,284,29.90
15.240,283,28.70
15.258,283,30.01
15.277,283,29.72
15.295,282,30.53
15.314,281,29.72
15.333,282,29.77
15.351,281,30.63
15.370,280,29.41
15.389,279,29.48
15.408,277,29.21
15.426,277,30.02
15.446,276,29.67
15.464,274,29.38
15.482,274,29.51
15.501,272,29.51
15.520,272,30.02
15.539,270,30.67
15.557,268,29.82
15.577,267,29.48
15.595,267,30.40
15.613,265,29.72
15.632,265,30.55
15.651,263,30.23
15.670,262,29.56
15.688,262,29.51
15.708,261,30.01
15.726,260,30.89
15.745,260,31.43
15.763,259,30.53
15.782,259,30.58
15.801,259,31.45
15.819,258,30.69
15.839,258,30.72
15.857,256,31.23
15.876,256,31.86
15.894,255,31.38
15.913,254,31.04
15.932,253,31.96
15.950,251,31.20
15.969,252,32.13
15.988,250,31.35
16.007,249,31.55
16.025,249,30.69
16.045,247,31.59
16.063,246,31.23
16.081,246,32.15
16.100,244,31.76
16.119,244,32.27
16.138,243,31.54
16.156,244,31.45
16.176,243,31.91
16.194,243,31.50
16.212,242,31.25
16.231,241,31.21
16.250,241,32.11
16.269,240,31.86
16.287,239,31.86
16.307,237,31.96
16.325,238,31.60
16.344,237,32.11
16.362,236,32.22
16.381,235,32.30
16.400,235,33.22
16.418,234,32.01
16.438,234,32.45
16.456,234,32.47
16.475,234,32.15
16.493,234,32.10
16.513,235,32.57
16.531,233,32.20
16.549,235,32.27
16.568,234,31.91
16.587,233,31.96
16.606,233,32.11
16.624,233,32.06
16.644,232,32.11
16.662,232,32.16
16.680,232,32.62
16.699,231,32.27
16.718,231,32.32
16.737,230,32.47
16.755,230,32.88
16.775,229,32.95
16.793,230,32.56
16.812,228,33.03
16.830,228,33.42
16.849,229,33.75
16.868,228,32.93
16.886,229,32.83
16.906,228,32.40
16.924,228,32.42
16.943,228,32.40
16.961,229,31.96
16.980,230,31.96
16.999,228,31.96
17.017,229,32.32
17.037,229,31.94
17.055,228,32.35
17.074,229,32.03
17.092,229,31.88
17.112,230,31.86
17.130,230,31.86
17.148,229,31.84
17.167,229,31.91
17.186,230,32.32
17.205,229,32.47
17.223,227,33.17
17.243,229,33.17
17.261,229,33.17
17.280,229,33.18
17.298,228,32.81
17.317,228,33.24
17.336,227,32.98
17.354,226,32.52
17.374,227,32.52
17.392,227,32.52
17.411,227,32.52
17.429,228,32.47
17.448,228,32.47
17.467,227,32.61
17.485,228,32.47
17.505,227,32.47
17.523,226,32.08
17.542,228,32.42
17.560,227,32.01
17.580,227,32.01
17.598,228,32.01
17.616,228,32.01
17.636,227,32.01
17.654,227,32.42
17.673,227,32.52
17.691,227,32.42
17.711,228,32.42
17.729,228,32.37
17.747,228,31.96
17.766,229,31.96
17.785,228,31.96
17.804,228,32.42
17.822,228,31.96
17.842,228,31.96
17.860,228,31.94
17.879,226,31.91
17.897,227,31.96
17.916,227,31.94
17.935,228,32.06
17.953,227,31.96
17.973,227,31.94
17.991,227,31.98
18.010,227,31.94
18.028,226,31.94
18.048,227,31.89
18.066,227,32.03
18.084,228,31.89
18.104,227,31.86
18.122,226,31.86
18.141,226,31.94
18.159,227,31.86
18.179,227,31.86
18.197,226,31.50
18.215,226,31.50
18.235,228,31.91
18.253,227,31.89
18.272,227,31.60
18.290,227,31.86
18.310,227,31.88
18.328,227,31.86
18.347,228,31.88
18.365,228,31.86
18.384,227,31.82
18.403,227,31.96
18.421,227,31.82
18.441,228,31.86
18.459,227,31.86
18.478,227,31.86
18.496,228,31.86
18.515,227,31.84
18.534,227,31.96
18.552,228,31.86
18.572,228,31.84
18.590,228,31.86
18.609,228,31.86
18.627,227,31.84
18.647,228,31.86
18.665,227,31.91
18.683,228,31.86
18.703,228,31.81
18.721,228,31.82
18.740,228,31.93
18.758,228,31.81
18.778,228,31.81
18.796,228,31.81
18.814,228,31.77
18.834,228,31.81
18.852,227,31.81
18.871,226,31.96
18.889,227,31.88
18.909,228,31.91
18.927,226,31.98
18.946,226,32.01
18.964,225,32.06
18.983,225,32.50
19.002,225,32.27
19.020,224,32.22
19.040,224,32.22
19.058,223,32.32
19.077,223,32.32
19.095,223,32.42
19.115,222,32.86
19.133,222,32.67
19.151,221,32.67
19.171,220,32.74
19.189,219,32.78
19.208,217,32.90
19.226,218,32.95
19.246,216,33.01
19.264,215,33.20
19.282,216,33.13
19.302,215,33.18
19.320,215,33.27
19.339,214,33.29
19.357,214,33.32
19.377,213,33.32
19.395,214,33.39
19.414,214,33.46
19.433,212,33.54
19.451,212,33.63
19.470,211,34.14
19.488,211,34.26
19.508,210,34.36
19.526,210,34.46
19.545,209,34.97
19.563,208,35.89
19.582,208,36.38
19.601,207,36.47
19.619,206,36.19
19.639,205,35.92
19.657,206,35.94
19.676,203,36.53
19.694,204,36.65
19.714,202,36.75
19.732,202,36.50
19.750,202,36.55
19.770,200,36.69
19.788,200,37.03
19.807,200,37.52
19.825,199,37.50
19.845,199,37.04
19.863,200,36.60
19.881,200,36.99
19.901,201,36.55
19.919,199,36.14
19.938,199,36.53
19.956,200,36.13
19.976,200,36.14
19.994,201,35.99
20.013,199,36.07
20.032,199,35.67
20.050,199,35.63
20.069,201,35.63
20.087,200,35.60
20.107,199,35.63
20.125,199,35.55
20.144,199,35.67
20.162,199,36.07
20.182,201,36.13
20.200,200,37.01
20.218,199,37.11
20.238,198,37.96
20.256,198,37.45
20.275,200,37.20
20.293,199,36.81
20.313,200,36.45
20.331,197,36.50
20.349,197,36.98
20.369,197,36.58
20.387,196,36.53
20.406,195,37.09
20.424,195,36.65
20.444,196,36.70
20.462,197,36.70
20.481,194,36.35
20.500,195,36.81
20.518,195,36.57
20.537,194,37.09
20.555,192,37.28
20.575,192,38.22
20.593,192,38.68
20.612,190,39.32
20.631,190,39.41
20.649,189,41.11
20.668,187,41.34
20.686,188,40.61
20.706,188,40.24
20.724,185,39.95
20.743,185,39.80
20.761,185,39.47
20.781,183,39.53
20.799,183,39.75
20.817,182,39.39
20.837,183,39.07
20.855,182,39.03
20.874,182,39.24
20.892,182,39.27
20.912,181,39.70
20.930,182,39.81
20.948,181,39.90
20.968,182,39.56
20.986,181,39.95
21.005,180,39.66
21.023,180,39.71
21.043,180,39.66
21.061,180,39.80
21.080,179,40.27
21.099,178,40.27
21.117,178,40.21
21.136,178,40.36
21.154,177,40.80
21.174,177,41.17
21.192,177,43.50
21.211,177,44.40
21.230,177,43.88
21.249,178,43.11
21.267,178,43.50
21.285,179,42.36
21.305,178,42.25
21.323,178,41.87
21.342,178,42.36
21.360,177,41.48
21.380,178,41.80
21.398,178,41.43
21.416,178,41.04
21.436,176,41.38
21.454,177,40.94
21.473,177,41.50
21.491,177,42.36
21.511,178,43.11
21.529,178,42.36
21.548,178,42.35
21.567,177,41.85
21.585,176,42.21
21.604,177,41.89
21.622,178,41.50
21.642,178,41.80
21.660,176,42.77
21.679,176,43.18
21.698,176,42.18
21.716,178,41.26
21.735,177,40.97
21.753,177,41.79
21.773,176,39.93
21.791,177,39.61
21.810,176,39.78
21.829,176,39.95
21.848,175,40.07
21.866,172,40.77
21.884,172,40.82
21.904,172,40.38
21.922,171,40.36
21.941,171,40.46
21.959,171,40.87
21.979,173,40.41
21.997,171,40.94
22.016,171,41.06
22.035,170,41.06
22.053,169,40.78
22.072,170,40.66
22.090,169,41.23
22.110,168,41.84
22.128,168,42.60
22.147,166,42.81
22.166,165,42.91
22.184,163,43.84
22.203,162,43.37
22.221,160,43.86
22.241,161,43.52
22.259,160,43.69
22.278,160,43.72
22.297,159,44.51
22.316,161,44.13
22.334,159,43.44
22.352,159,43.49
22.372,159,43.45
22.390,158,43.28
22.409,158,43.40
22.428,159,43.81
22.447,158,43.91
22.465,158,43.79
22.483,156,43.95
22.503,155,44.00
22.521,154,44.15
22.540,152,44.42
22.558,151,44.51
22.578,153,44.66
22.596,150,44.93
22.615,151,45.07
22.634,150,45.14
22.652,149,44.91
22.671,148,45.19
22.689,147,45.63
22.709,146,45.78
22.727,145,45.65
22.746,146,45.80
22.765,145,46.16
22.784,146,45.88
22.802,144,46.10
22.820,143,46.12
22.840,144,46.21
22.858,143,46.46
22.877,143,46.87
22.896,143,46.67
22.915,142,46.82
22.933,141,47.46
22.951,141,47.53
22.971,141,47.74
22.989,139,48.31
23.008,138,48.47
23.027,137,48.30
23.046,137,48.47
23.064,136,49.06
23.083,133,48.71
23.102,132,48.79
23.120,131,48.91
23.139,130,48.96
23.157,129,49.03
23.177,127,49.15
23.195,129,49.32
23.214,127,49.27
23.233,125,49.35
23.251,126,49.39
23.270,126,49.45
23.288,127,49.50
23.308,127,49.61
23.326,128,49.78
23.345,127,49.71
23.364,127,49.78
23.383,127,49.83
23.401,127,49.83
23.419,127,50.24
23.439,126,49.83
23.457,127,49.93
23.476,127,49.83
23.495,128,49.83
23.514,127,49.84
23.532,126,49.81
23.550,127,49.83
23.570,126,49.81
23.588,127,49.83
23.607,126,49.83
23.626,125,49.81
23.645,127,49.79
23.663,126,49.84
23.682,127,50.17
23.701,125,49.76
23.719,126,49.76
23.738,126,49.76
23.756,127,50.17
23.776,125,50.58
23.794,127,50.98
23.813,127,50.52
23.832,126,50.05
23.851,126,50.42
23.869,126,49.96
23.887,125,49.90
23.907,125,50.25
23.925,127,50.27
23.944,128,50.52
23.963,127,50.47
23.982,127,50.88
24.000,128,50.03
24.018,129,50.83
24.038,129,50.85
24.056,128,50.12
24.075,128,50.44
24.094,127,49.61
24.113,128,49.62
24.131,128,49.61
24.150,128,49.62
24.169,128,49.61
24.187,127,49.61
24.206,128,50.00
24.225,128,50.00
24.244,128,49.98
24.262,129,49.93
24.281,128,49.86
24.300,129,49.83
24.318,131,49.78
24.337,132,49.76
24.355,132,49.74
24.375,131,49.37
24.393,130,49.86
24.412,131,49.81
24.431,132,49.76
24.450,132,49.40
24.468,132,49.40
24.486,132,49.40
24.506,132,49.84
24.524,132,49.91
24.543,131,49.44
24.562,132,49.83
24.581,132,49.47
24.599,130,49.50
24.617,132,49.96
24.637,130,50.00
24.655,130,49.71
24.674,129,49.62
24.693,128,50.01
24.712,129,50.07
24.730,130,50.07
24.749,130,49.66
24.768,130,49.73
24.786,129,50.15
24.805,128,49.83
24.824,128,49.88
24.843,129,50.32
24.861,127,50.37
24.880,127,50.07
24.899,126,50.13
24.918,125,50.22
24.936,123,50.27
24.954,124,50.35
24.974,124,50.86
24.992,124,50.51
25.011,121,51.00
25.030,122,50.68
25.049,121,51.15
25.067,121,51.29
25.085,119,51.39
25.105,120,51.14
25.123,118,51.34
25.142,118,51.94
25.161,116,51.68
25.180,116,51.85
25.198,115,52.00
25.217,114,52.14
25.236,114,52.24
25.254,114,52.79
25.273,113,52.45
25.292,112,52.51
25.311,112,52.17
25.329,111,52.63
25.348,110,52.73
25.367,110,52.34
25.385,110,52.72
25.404,110,52.87
25.423,110,52.84
25.442,111,52.50
25.460,111,52.55
25.479,110,53.43
25.498,110,53.04
25.517,110,53.02
25.535,110,53.18
25.553,109,53.31
25.573,108,53.48
25.591,107,53.69
25.610,108,53.94
25.629,104,54.21
25.648,105,54.89
25.666,104,54.93
25.684,102,55.76
25.704,101,55.30
25.722,99,56.07
25.740,99,56.41
25.758,97,56.68
25.776,96,56.80
25.793,95,57.05
25.810,97,57.09
25.829,96,57.10
25.846,96,56.97
25.864,95,57.07
25.881,96,57.51
25.900,96,57.00
25.917,96,57.44
25.934,96,57.56
25.952,96,57.15
25.970,95,57.43
25.988,94,57.60
26.005,95,57.60
26.023,94,57.21
26.041,96,57.92
26.058,94,58.04
26.076,95,57.61
26.094,94,57.26
26.112,95,57.56
26.129,95,58.11
26.146,95,57.70
26.165,95,57.61
26.182,95,57.61
26.200,95,58.16
26.217,95,57.73
26.235,94,57.60
26.253,96,58.55
26.270,95,57.72
26.289,97,58.53
26.306,96,57.97
26.323,95,58.50
26.341,95,58.06
26.359,96,58.07
26.377,95,59.19
26.394,96,58.02
26.412,96,58.04
26.430,97,57.94
26.447,97,57.55
26.465,95,58.04
26.482,96,58.04
26.501,95,57.56
26.518,95,57.56
26.535,97,58.12
26.554,96,58.14
26.571,95,57.61
26.589,96,57.73
26.606,95,57.73
26.625,95,58.14
26.642,95,58.06
26.659,95,58.19
26.677,95,58.21
26.695,95,58.57
26.713,93,58.17
26.730,94,59.14
26.747,95,57.94
26.766,95,57.85
26.783,93,58.72
26.801,94,59.26
26.818,93,59.31
26.836,94,59.69
26.854,93,58.97
26.871,92,59.43
26.890,93,59.01
26.907,93,59.40
26.925,94,59.55
26.942,93,58.38
26.960,93,59.19
26.978,93,59.35
26.995,91,58.79
27.013,90,58.92
27.031,93,59.38
27.048,91,59.48
27.066,89,59.23
27.083,90,58.97
27.102,91,58.96
27.119,89,59.60
27.137,88,59.69
27.155,90,60.18
27.172,89,59.87
27.190,88,60.16
27.207,89,59.94
27.226,87,60.76
27.243,88,60.69
27.260,87,60.93
27.278,85,61.59
27.296,85,63.50
27.314,84,63.38
27.331,84,64.58
27.348,84,63.48
27.367,82,65.01
27.384,82,62.82
27.402,83,62.95
27.420,82,62.56
27.438,81,63.07
27.455,81,63.24
27.472,82,62.46
27.491,80,62.76
27.508,81,63.24
27.526,81,62.92
27.543,81,62.46
27.561,80,63.27
27.579,80,63.29
27.596,81,63.78
27.614,80,62.83
27.632,81,63.24
27.650,81,62.85
27.667,81,63.78
27.685,81,63.68
27.703,81,63.24
27.720,82,63.33
27.738,80,63.68
27.756,81,63.24
27.773,81,62.88
27.791,81,63.02
27.808,80,63.82
27.827,81,63.04
27.844,81,63.51
27.862,81,63.67
27.879,82,62.75
27.897,80,63.21
27.915,80,63.22
27.932,79,62.92
27.950,81,62.87
27.968,81,62.88
27.985,81,63.00
28.003,79,63.07
28.021,80,62.97
28.039,80,62.97
28.056,80,63.48
28.073,81,62.99
28.092,81,63.00
28.109,81,62.99
28.127,79,63.09
28.144,81,62.99
28.163,80,62.61
28.180,80,62.61
28.197,80,62.71
28.215,80,62.59
28.233,81,62.99
28.251,81,62.71
28.268,81,62.70
28.286,81,62.59
28.304,80,62.61
28.321,80,63.10
28.339,80,62.65
28.357,81,62.61
28.375,81,63.02
28.392,80,63.12
28.409,80,63.43
28.428,79,63.41
28.445,82,62.99
28.463,81,63.07
28.480,82,63.00
28.498,81,63.39
28.516,80,63.53
28.533,82,63.46
28.552,81,62.97
28.569,79,63.41
28.587,82,63.07
28.604,81,62.97
28.622,80,63.34
28.640,81,63.41
28.657,81,63.07
28.675,81,63.36
28.693,80,63.00
28.710,80,63.00
28.728,80,63.10
28.745,81,63.00
28.764,80,63.02
28.781,81,63.39
28.798,79,63.53
28.817,80,62.99
28.834,82,63.44
28.852,81,63.10
28.869,80,63.12
28.888,81,63.00
28.905,81,63.00
28.922,80,63.10
28.940,80,63.02
28.958,80,63.41
28.976,81,63.43
28.993,81,63.12
29.010,81,63.02
29.029,81,63.48
29.046,80,63.48
29.064,80,63.16
29.081,80,63.07
29.100,81,63.46
29.117,80,63.58
29.134,79,63.22
29.153,79,63.56
29.170,80,63.55
29.188,79,63.26
29.205,80,63.61
29.223,79,63.19
29.241,79,63.63
29.258,79,63.31
29.276,79,63.22
29.294,79,63.68
29.312,79,63.26
29.329,79,63.84
29.346,79,63.73
29.365,79,63.33
29.382,79,63.85
29.400,79,63.43
29.418,78,63.31
29.435,81,63.33
29.453,79,63.84
29.470,78,63.29
29.489,78,63.70
29.506,79,63.29
29.523,79,63.84
29.541,79,63.31
29.559,79,63.73
29.577,80,63.33
29.594,79,63.43
29.612,80,63.77
29.630,80,63.41
29.647,78,63.92
29.665,77,63.99
29.683,78,63.94
29.701,79,63.99
29.718,77,64.14
29.735,77,64.09
29.754,80,63.75
29.771,79,64.19
29.789,78,64.34
29.806,77,64.26
29.825,78,64.29
29.842,78,64.33
29.859,78,64.46
29.877,79,64.38
29.895,77,64.43
29.913,78,64.46
29.930,78,65.37
29.948,78,64.58
29.966,78,65.50
29.983,77,65.65
30.001,78,65.21
30.019,78,65.30
30.036,78,65.40
30.054,78,65.98
30.071,78,65.98
30.090,78,66.06
30.107,79,66.11
30.125,77,65.81
30.142,77,65.89
30.160,77,65.98
30.178,77,65.70
30.195,78,66.22
30.213,77,66.83
30.231,76,66.55
30.248,76,67.25
30.266,75,67.69
30.284,75,67.86
30.302,75,67.13
30.319,75,67.22
30.337,75,67.32
30.355,75,67.42
30.372,76,67.49
30.390,75,67.97
30.407,75,67.61
30.426,76,67.66
30.443,75,67.71
30.460,76,67.75
30.478,77,67.83
30.496,75,67.88
30.514,75,68.39
30.531,75,68.46
30.550,77,68.10
30.567,76,67.81
30.584,76,67.91
30.602,76,68.43
30.620,76,68.51
30.638,76,67.81
30.655,76,68.31
30.672,76,68.44
30.691,76,68.56
30.708,75,68.68
30.726,76,68.85
30.743,75,69.00
30.761,77,69.16
30.779,75,69.29
30.796,75,69.45
30.815,75,69.63
30.832,76,69.41
30.850,75,70.36
30.867,76,70.06
30.885,74,69.79
30.903,75,70.30
30.920,75,70.82
30.938,75,70.89
30.956,74,70.96
30.973,75,70.09
30.991,73,70.30
31.008,76,71.21
31.027,75,70.47
31.044,74,70.87
31.062,73,71.11
31.080,74,70.84
31.097,74,71.33
31.115,74,71.11
31.132,73,71.62
31.151,74,71.38
31.168,73,71.84
31.185,73,72.10
31.203,75,72.23
31.221,72,72.81
31.239,73,72.01
31.256,72,72.64
31.273,72,72.39
31.292,74,72.86
31.309,73,72.45
31.327,72,72.23
31.344,72,72.71
31.363,73,72.74
31.380,72,72.96
31.397,72,73.10
31.416,71,73.24
31.433,71,73.30
31.451,71,74.36
31.468,71,74.00
31.486,72,74.88
31.504,71,74.00
31.521,71,74.99
31.539,72,74.17
31.557,71,74.12
31.575,72,73.80
31.592,71,74.38
31.609,70,74.12
31.628,71,74.12
31.645,72,74.80
31.663,72,74.55
31.681,70,74.63
31.698,71,74.66
31.716,71,75.29
31.733,70,75.00
31.752,70,74.73
31.769,71,75.60
31.787,70,75.87
31.804,71,76.02
31.822,70,76.09
31.840,70,75.40
31.857,70,75.62
31.875,69,75.72
31.893,70,76.06
31.910,71,75.79
31.928,70,75.79
31.946,71,76.18
31.964,71,76.08
31.981,71,76.18
31.998,70,76.19
32.017,70,76.93
32.034,71,76.06
32.052,71,76.16
32.069,70,76.18
32.088,69,76.04
32.105,71,76.04
32.122,69,76.14
32.140,70,76.57
32.158,70,76.04
32.176,70,76.06
32.193,69,77.01
32.211,70,76.55
32.229,70,76.89
32.246,70,76.55
32.264,70,76.57
32.282,70,76.06
32.300,70,76.87
32.317,71,76.55
32.334,70,76.99
32.353,70,76.06
32.370,71,76.09
32.388,69,76.19
32.405,70,76.21
32.423,70,76.93
32.441,71,76.11
32.458,71,76.19
32.476,71,77.06
32.494,70,76.99
32.512,71,76.28
32.529,70,76.31
32.547,70,76.25
32.565,69,75.94
32.582,70,76.16
32.600,70,76.65
32.618,70,76.69
32.635,69,76.82
32.653,70,76.69
32.670,70,77.16
32.689,69,77.04
32.706,70,76.70
32.723,69,76.77
32.741,71,77.23
32.759,69,76.72
32.777,70,76.87
32.794,70,76.91
32.813,70,77.32
32.830,70,77.06
32.847,68,77.35
32.865,69,77.50
32.883,68,77.52
32.901,69,77.71
32.918,68,77.93
32.935,68,78.00
32.954,69,78.01
32.971,69,78.40
32.989,67,78.63
33.006,68,78.57
33.025,69,78.64
33.042,66,78.34
33.059,70,78.35
33.078,67,78.23
33.095,68,78.66
33.113,68,78.34
33.130,67,78.35
33.148,67,78.25
33.166,68,78.27
33.183,68,78.42
33.201,68,78.44
33.219,68,78.17
33.236,68,78.51
33.254,67,78.32
33.271,68,79.17
33.290,67,79.32
33.307,66,79.07
33.325,67,79.34
33.343,67,79.36
33.360,67,79.48
33.378,66,79.27
33.395,68,79.73
33.414,67,79.68
33.431,66,79.75
33.448,65,80.34
33.466,67,79.85
33.484,67,80.29
33.502,67,79.85
33.519,66,79.97
33.537,66,79.85
33.555,65,79.85
33.572,66,79.48
33.590,67,79.95
33.607,66,79.88
33.626,65,79.51
33.643,65,80.07
33.660,66,80.14
33.679,65,80.50
33.696,65,80.19
33.714,65,79.98
33.731,65,79.93
33.750,66,80.39
33.767,64,80.44
33.784,63,80.63
33.802,63,80.22
33.820,64,80.66
33.838,65,80.34
33.855,63,80.92
33.872,63,80.87
33.891,63,80.94
33.908,63,80.77
33.926,64,81.09
33.944,65,80.80
33.961,64,81.28
33.979,65,81.06
33.996,62,81.40
34.015,64,81.46
34.032,62,81.16
34.050,63,81.70
34.067,62,81.28
34.085,63,81.33
34.103,62,81.36
34.120,61,81.50
34.138,61,81.46
34.156,62,81.92
34.173,62,81.75
34.191,62,82.18
34.209,61,81.97
34.227,61,82.18
34.244,61,82.48
34.262,60,82.60
34.280,61,82.81
34.297,60,83.44
34.315,60,83.35
34.332,60,83.90
34.351,60,84.08
34.368,60,83.90
34.385,59,84.03
34.403,59,84.63
34.421,60,84.69
34.439,60,84.41
34.456,59,84.46
34.475,57,84.90
34.492,58,84.97
34.509,58,84.98
34.527,59,84.58
34.545,58,84.98
34.563,58,85.09
34.580,57,84.71
34.597,58,85.14
34.616,58,84.83
34.633,57,84.88
34.651,57,84.98
34.668,58,85.46
34.686,59,85.58
34.704,58,85.61
34.721,58,85.70
34.739,58,85.73
34.757,58,85.36
34.775,58,85.36
34.792,57,85.37
34.810,58,85.75
34.828,57,85.37
34.845,59,85.73
34.863,57,85.32
34.881,56,85.68
34.898,58,85.66
34.916,58,86.11
34.933,56,85.65
34.952,57,85.24
34.969,58,85.63
34.987,58,85.61
35.004,58,86.04
35.022,57,85.61
35.040,57,85.32
35.057,57,85.24
35.076,58,86.04
35.093,58,85.22
35.110,56,86.04
35.128,58,85.63
35.146,56,86.11
35.164,58,85.32
35.181,57,86.22
35.198,57,85.92
35.217,57,86.45
35.234,56,86.53
35.252,58,86.22
35.269,57,86.72
35.288,57,86.85
35.305,57,87.40
35.322,58,86.75
35.341,55,87.74
35.358,56,87.55
35.376,55,88.21
35.393,56,87.65
35.411,55,88.25
35.429,53,88.08
35.446,54,88.25
35.464,54,89.30
35.482,53,89.45
35.500,54,88.69
35.517,54,89.78
35.534,54,89.11
35.553,54,89.28
35.570,53,90.19
35.588,53,90.10
35.606,52,89.86
35.623,53,89.91
35.641,54,90.12
35.658,53,89.83
35.677,52,90.29
35.694,53,90.30
35.712,53,90.51
35.729,52,90.24
35.747,53,90.78
35.765,53,90.87
35.782,51,91.17
35.800,53,90.66
35.818,51,91.14
35.835,51,91.36
35.853,51,91.72
35.870,51,91.88
35.889,52,92.02
35.906,51,92.70
35.923,50,93.35
35.942,50,93.14
35.959,50,93.18
35.977,49,93.02
35.994,49,93.16
36.013,50,93.18
36.030,49,93.72
36.047,48,93.57
36.065,47,93.69
36.083,51,93.69
36.101,48,93.81
36.118,50,94.37
36.135,50,94.03
36.154,48,94.01
36.171,49,94.96
36.189,48,94.15
36.207,48,94.44
36.225,49,94.44
36.242,49,94.16
36.259,50,94.16
36.278,50,95.34
36.295,48,94.47
36.313,49,94.59
36.330,50,95.00
36.348,48,94.47
36.366,50,94.88
36.383,49,94.64
36.401,49,94.95
36.419,48,95.44
36.436,49,95.15
36.454,48,94.81
36.472,47,95.59
36.490,49,94.81
36.507,48,95.37
36.525,47,95.69
36.543,48,95.32
36.560,49,95.40
36.578,48,95.90
36.595,48,96.00
36.614,48,95.61
36.631,48,95.47
36.648,49,96.00
36.666,49,96.07
36.684,48,96.20
36.702,48,96.36
36.719,48,96.58
36.738,48,96.61
36.755,48,96.29
36.772,47,96.83
36.790,48,96.53
36.808,46,97.31
36.826,48,97.78
36.843,47,97.92
36.860,48,96.97
36.879,46,96.58
36.896,46,96.58
36.914,45,97.07
36.931,47,97.38
36.950,47,96.56
36.967,46,96.97
36.984,46,97.07
37.002,46,97.39
37.020,47,97.80
37.038,46,97.07
37.055,47,97.48
37.073,47,97.78
37.091,46,97.34
37.108,45,97.04
37.126,47,96.93
37.144,46,97.75
37.161,46,96.92
37.179,46,97.78
37.196,46,97.31
37.215,46,97.26
37.232,46,97.68
37.250,48,98.58
37.267,47,97.19
37.285,46,97.55
37.303,46,97.61
37.320,46,97.22
37.339,47,98.33
37.356,47,97.50
37.373,47,97.21
37.391,47,98.35
37.409,47,97.50
37.427,47,98.74
37.444,46,97.58
37.462,48,98.70
37.480,46,97.46
37.497,47,97.44
37.515,46,99.20
37.532,47,97.43
37.551,48,97.43
37.568,47,97.56
37.585,47,97.17
37.604,47,97.07
37.621,47,97.46
37.639,47,97.97
37.656,47,97.89
37.675,47,98.74
37.692,45,97.51
37.709,48,98.02
37.727,48,97.14
37.745,46,97.53
37.763,47,97.95
37.780,46,97.72
37.797,46,97.26
37.816,45,98.52
37.833,48,98.19
37.851,47,99.50
37.869,47,97.51
37.886,45,97.97
37.904,46,98.14
37.921,46,98.53
37.940,46,98.62
37.957,46,99.54
37.975,45,98.46
37.992,47,98.86
38.010,45,98.55
38.028,46,98.23
38.045,46,98.41
38.063,45,100.06
38.082,46,99.42
38.099,47,99.14
38.117,45,100.15
38.136,45,99.47
38.154,46,100.06
38.172,47,100.71
38.191,45,99.89
38.209,47,99.16
38.226,45,99.67
38.244,46,99.47
38.261,45,99.45
38.280,46,99.50
38.297,46,100.81
38.316,46,100.84
38.335,45,100.90
38.353,45,100.91
38.372,45,100.23
38.390,45,101.10
38.410,44,100.79
38.428,45,100.96
38.447,45,101.13
38.465,44,100.52
38.484,46,102.37
38.503,43,101.86
38.521,45,101.18
38.541,43,103.53
38.559,43,102.49
38.578,44,102.37
38.596,43,103.02
38.616,44,104.52
38.634,43,103.12
38.652,44,103.73
38.672,41,103.99
38.690,42,104.23
38.709,43,104.04
38.727,43,105.94
38.747,41,104.50
38.765,43,105.45
38.784,41,105.79
38.803,42,108.58
38.821,40,107.90
38.840,42,108.70
38.858,41,111.52
38.878,40,111.66
38.896,42,109.84
38.915,40,111.10
38.934,40,110.87
38.952,41,111.84
38.971,41,111.27
38.989,40,128.06
39.009,40,111.50
39.027,41,121.77
39.046,39,112.81
39.064,41,110.79
39.084,41,110.91
39.102,41,110.36
39.120,42,111.40
39.140,39,111.88
39.158,39,111.25
39.177,40,112.37
39.195,39,112.15
39.215,40,110.60
39.233,38,112.12
39.251,39,113.19
39.271,38,111.59
39.289,39,112.66
39.308,38,113.58
39.326,39,114.84
39.346,38,131.09
39.364,39,114.72
39.383,38,113.22
39.402,37,130.32
39.420,38,113.05
39.439,37,114.48
39.457,36,118.39
39.477,36,114.31
39.495,37,113.58
39.514,37,115.19
39.533,35,113.97
39.552,35,115.96
39.570,35,114.53
39.588,37,116.03
39.608,36,115.92
39.626,36,114.94
39.645,35,115.80
39.663,35,114.84
39.683,35,114.05
39.701,35,115.01
39.719,35,116.08
39.739,35,116.11
39.757,34,116.88
39.776,34,117.25
39.794,34,118.35
39.814,34,119.41
39.832,35,119.78
39.851,35,118.22
39.870,35,118.12
39.888,33,119.17
39.907,33,119.02
39.925,34,118.49
39.945,36,119.99
39.963,35,118.58
39.982,37,119.61
40.001,35,120.22
40.019,35,119.58
40.038,34,119.75
40.056,35,119.85
40.076,35,119.58
40.094,34,120.09
40.113,34,119.39
40.132,35,119.48
40.151,36,120.04
40.169,35,120.21
40.187,35,119.97
40.207,34,120.24
40.225,34,121.60
40.244,34,120.65
40.262,33,120.34
40.282,33,121.81
40.300,34,121.92
40.318,34,121.60
40.338,33,121.21
40.356,33,121.64
40.375,32,121.64
40.393,34,121.64
40.413,33,122.89
40.431,33,121.65
40.450,34,122.04
40.469,34,122.03
40.487,34,122.42
40.506,33,121.64
40.524,34,123.28
40.544,34,122.45
40.562,32,121.94
40.581,33,121.62
40.600,34,123.66
40.619,33,123.54
40.637,34,123.22
40.655,34,122.76
40.675,35,122.30
40.693,33,123.03
40.712,34,124.34
40.731,34,123.06
40.750,32,124.59
40.768,32,124.29
40.786,34,121.40
40.806,33,121.38
40.824,32,120.50
40.843,33,120.50
40.861,33,120.48
40.881,33,120.92
40.899,33,120.90
40.918,34,121.74
40.937,33,122.18
40.955,34,122.47
40.974,34,122.94
40.992,34,121.70
41.012,33,121.70
41.030,33,121.65
41.049,33,122.52
41.068,33,122.93
41.086,33,123.59
41.105,34,126.67
41.123,34,127.50
41.143,32,124.25
41.161,33,121.60
41.180,32,123.32
41.199,32,121.16
41.218,33,122.69
41.236,32,121.38
41.254,33,114.61
41.274,33,124.47
41.292,32,129.52
41.311,32,118.83
41.330,34,131.58
41.349,32,129.57
41.367,32,126.11
41.385,35,121.84
41.405,34,119.46
41.423,31,121.45
41.442,30,118.63
41.460,30,117.20
41.480,31,125.55
41.498,30,127.43
41.517,32,125.36
41.536,31,112.88
41.554,32,107.24
41.573,31,113.76
41.591,34,111.83
41.611,31,124.71
41.629,31,108.46
41.648,28,132.02
41.667,25,104.14
41.686,23,103.04
41.704,22,101.03
41.722,19,132.46
41.742,17,101.24
41.760,15,99.79
41.778,14,106.96
41.797,13,98.16
41.815,11,104.43
41.833,11,97.12
41.850,13,93.99
41.869,12,102.37
41.887,12,128.32
41.906,14,98.96
41.923,12,94.10
41.942,14,93.70
41.959,13,112.34
41.977,12,110.87
41.997,13,91.02
42.014,13,90.24
42.032,13,88.03
42.049,12,85.31
42.067,12,86.34
42.085,13,85.36
42.102,14,84.75
42.120,16,82.42
42.138,18,84.75
42.156,22,118.75
42.174,23,207.77
42.192,25,82.02
42.211,26,84.35
42.228,26,112.56
42.247,29,113.20
42.266,29,207.77
42.285,29,207.35
42.303,27,99.64
42.320,25,80.82
42.339,25,116.13
42.357,23,80.73
42.375,22,78.15
42.392,24,79.68
42.411,22,81.86
42.428,22,207.33
42.446,22,101.97
42.466,23,93.40
42.483,22,109.41
42.502,21,105.84
42.520,22,92.31
42.539,21,209.90
42.557,19,208.52
42.575,18,87.62
42.593,19,95.29
42.611,19,93.94
42.629,18,131.95
42.647,17,94.18
42.665,19,207.76
42.684,18,207.76
42.702,16,75.91
42.720,16,76.01
42.738,15,78.71
42.756,15,78.03
42.773,13,76.02
42.790,14,88.09
42.809,14,207.33
42.827,15,89.10
42.845,18,86.16
42.863,20,83.10
42.881,26,87.28
42.898,31,81.26
42.915,34,64.60
42.934,37,82.81
42.951,36,61.74
42.969,34,81.89
42.986,34,83.83
43.004,31,81.65
43.022,28,62.90
43.039,25,207.32
43.058,24,52.17
43.076,24,47.57
43.094,23,60.84
43.111,25,58.87
43.129,27,131.05
43.148,28,58.04
43.165,31,81.91
43.183,36,59.76
43.201,38,61.08
43.218,41,63.48
43.236,43,80.05
43.253,42,210.22
43.273,42,77.42
43.290,42,77.15
43.308,48,59.70
43.325,51,73.36
43.343,49,71.21
43.361,41,74.27
43.378,36,66.84
43.397,33,64.36
43.414,34,60.89
43.431,25,222.89
43.450,13,221.20
43.469,9,221.20
43.487,6,223.31
43.504,5,120.16
43.522,5,223.31
43.540,3,221.19
43.557,3,221.58
43.575,4,222.89
43.593,2,220.34
43.611,2,225.76
43.628,2,225.73
43.645,2,226.98
43.664,2,228.67
43.681,2,226.03
43.699,2,226.54
43.716,1,226.93
43.735,1,228.23
43.752,2,238.15
43.769,1,226.08
43.787,2,226.10
43.805,0,226.07
43.823,1,225.56
43.840,0,224.83
43.857,2,224.79
43.876,1,225.23
43.893,1,223.14
43.911,0,223.96
43.929,2,224.81
43.947,2,224.79
43.964,1,227.34
43.981,2,226.46
44.000,0,221.90
44.017,2,225.10
44.035,1,224.38
44.052,1,224.81
44.070,0,224.79
44.088,1,221.88
44.105,1,226.47
44.123,0,226.05
44.141,1,223.98
44.158,0,225.20
44.176,1,225.64
44.194,0,224.79
44.212,0,225.18
44.229,0,224.74
44.247,0,225.25
44.265,0,223.55
44.282,1,224.77
44.300,0,225.62
44.317,1,224.77
44.336,0,223.96
44.353,1,227.22
44.370,2,226.88
44.388,1,224.37
44.406,1,223.98
44.424,1,224.38
44.441,1,223.96
44.460,0,227.75
44.477,1,227.22
44.494,2,225.20
44.512,2,224.79
44.530,2,225.20
44.548,1,224.37
44.565,0,224.79
44.582,1,226.90
44.601,0,223.96
44.618,2,226.37
44.636,2,226.05
44.653,0,226.47
44.672,0,226.54
44.689,0,224.69
44.706,0,226.03
44.725,1,226.90
44.742,1,225.61
44.760,0,225.62
44.777,0,226.05
44.795,0,225.18
44.813,1,226.39
44.830,2,225.22
44.848,1,224.81
44.866,0,225.66
44.883,0,226.81
44.901,0,224.83
44.918,2,224.77
44.937,0,224.40
44.954,0,225.54
44.972,2,226.92
44.989,0,227.31
45.007,0,225.23
45.025,0,224.38
45.042,0,224.37
45.061,0,224.37
45.078,0,226.83
45.095,0,225.20
45.113,0,225.22
45.131,0,225.22
45.149,1,224.79
45.166,0,226.05
45.184,0,224.81
45.202,0,224.37
45.219,0,224.71
45.237,0,224.83
